History written: Fri Oct 25 15:04:05 2019
produced by benjam23
##### PDFgui fit
stype=N  neutron scattering
qmax=35.00
qdamp=0.0142651
qbroad=0.0240589
dscale=0.951762
fitrmin=0.5
fitrmax=50
# metadata
temperature=15.0
##### start data
#L r(A) G(r) d_r d_Gr Gdiff
0.49 -0.182946 0.0 93.0349 93.0349
0.5 -0.457451 0.0 92.5065 92.5065
0.51 -0.722649 0.0 92.1136 92.1136
0.52 -0.951623 0.0 91.8216 91.8216
0.53 -1.1213 0.0 91.5873 91.5873
0.54 -1.2152 0.0 91.3652 91.3652
0.55 -1.22545 0.0 91.1115 91.1115
0.56 -1.15385 0.0 90.7798 90.7798
0.57 -1.01167 0.0 90.3317 90.3317
0.58 -0.818482 0.0 89.7285 89.7285
0.59 -0.599889 0.0 88.9409 88.9409
0.6 -0.384517 0.0 87.9425 87.9425
0.61 -0.200642 0.0 86.7186 86.7186
0.62 -0.0727969 0.0 85.2578 85.2578
0.63 -0.0188004 0.0 83.5618 83.5618
0.64 -0.0475552 0.0 81.6406 81.6406
0.65 -0.157895 0.0 79.5159 79.5159
0.66 -0.33863 0.0 77.2226 77.2226
0.67 -0.569806 0.0 74.8068 74.8068
0.68 -0.825037 0.0 72.325 72.325
0.69 -1.07464 0.0 69.8446 69.8446
0.7 -1.28922 0.0 67.4352 67.4352
0.71 -1.44324 0.0 65.1712 65.1712
0.72 -1.51823 0.0 63.1222 63.1222
0.73 -1.50509 0.0 61.3461 61.3461
0.74 -1.40538 0.0 59.8884 59.8884
0.75 -1.23126 0.0 58.7723 58.7723
0.76 -1.0042 0.0 57.9992 57.9992
0.77 -0.752457 0.0 57.5435 57.5435
0.78 -0.507802 0.0 57.3528 57.3528
0.79 -0.301647 0.0 57.3556 57.3556
0.8 -0.161232 0.0 57.4592 57.4592
0.81 -0.106227 0.0 57.5622 57.5622
0.82 -0.146205 0.0 57.5602 57.5602
0.83 -0.279301 0.0 57.3593 57.3593
0.84 -0.492243 0.0 56.8792 56.8792
0.85 -0.761767 0.0 56.0658 56.0658
0.86 -1.05728 0.0 54.8963 54.8963
0.87 -1.34447 0.0 53.3825 53.3825
0.88 -1.5894 0.0 51.5694 51.5694
0.89 -1.76266 0.0 49.5337 49.5337
0.9 -1.84307 0.0 47.3771 47.3771
0.91 -1.82037 0.0 45.2154 45.2154
0.92 -1.69671 0.0 43.1677 43.1677
0.93 -1.48661 0.0 41.3446 41.3446
0.94 -1.21542 0.0 39.8364 39.8364
0.95 -0.916449 0.0 38.7054 38.7054
0.96 -0.627069 0.0 37.9741 37.9741
0.97 -0.384207 0.0 37.6272 37.6272
0.98 -0.219854 0.0 37.6099 37.6099
0.99 -0.157055 0.0 37.8311 37.8311
1 -0.206918 0.0 38.1769 38.1769
1.01 -0.367018 0.0 38.52 38.52
1.02 -0.621408 0.0 38.7324 38.7324
1.03 -0.942289 0.0 38.7013 38.7013
1.04 -1.29315 0.0 38.3421 38.3421
1.05 -1.63303 0.0 37.609 37.609
1.06 -1.92146 0.0 36.4985 36.4985
1.07 -2.12334 0.0 35.0563 35.0563
1.08 -2.21341 0.0 33.3714 33.3714
1.09 -2.17952 0.0 31.5685 31.5685
1.1 -2.0244 0.0 29.7954 29.7954
1.11 -1.76566 0.0 28.2107 28.2107
1.12 -1.43398 0.0 26.964 26.964
1.13 -1.06968 0.0 26.1817 26.1817
1.14 -0.717964 0.0 25.952 25.952
1.15 -0.423579 0.0 26.3146 26.3146
1.16 -0.225297 0.0 27.2553 27.2553
1.17 -0.151051 0.0 28.7011 28.7011
1.18 -0.214268 0.0 30.5343 30.5343
1.19 -0.411871 0.0 32.5939 32.5939
1.2 -0.724264 0.0 34.6963 34.6963
1.21 -1.11731 0.0 36.6513 36.6513
1.22 -1.54616 0.0 38.2812 38.2812
1.23 -1.96044 0.0 39.4394 39.4394
1.24 -2.31029 0.0 40.0223 40.0223
1.25 -2.55248 0.0 39.9845 39.9845
1.26 -2.65582 0.0 39.3418 39.3418
1.27 -2.60535 0.0 38.1684 38.1684
1.28 -2.40456 0.0 36.5936 36.5936
1.29 -2.07544 0.0 34.7834 34.7834
1.3 -1.65633 0.0 32.9283 32.9283
1.31 -1.19763 0.0 31.2226 31.2226
1.32 -0.756013 0.0 29.843 29.843
1.33 -0.387595 0.0 28.9306 28.9306
1.34 -0.14111 0.0 28.5781 28.5781
1.35 -0.0517063 0.0 28.8187 28.8187
1.36 -0.136258 0.0 29.6233 29.6233
1.37 -0.390768 0.0 30.9038 30.9038
1.38 -0.790247 0.0 32.5202 32.5202
1.39 -1.29115 0.0 34.3002 34.3002
1.4 -1.83616 0.0 36.0532 36.0532
1.41 -2.36079 0.0 37.5918 37.5918
1.42 -2.80107 0.0 38.7521 38.7521
1.43 -3.10143 0.0 39.4084 39.4084
1.44 -3.22173 0.0 39.4907 39.4907
1.45 -3.14273 0.0 38.9847 38.9847
1.46 -2.86911 0.0 37.9391 37.9391
1.47 -2.42966 0.0 36.4567 36.4567
1.48 -1.87457 0.0 34.6836 34.6836
1.49 -1.26995 0.0 32.789 32.789
1.5 -0.690301 0.0 30.9553 30.9553
1.51 -0.209594 0.0 29.3506 29.3506
1.52 0.107812 0.0 28.1132 28.1132
1.53 0.215439 0.0 27.3366 27.3366
1.54 0.0910456 0.0 27.064 27.064
1.55 -0.259746 0.0 27.2787 27.2787
1.56 -0.803113 0.0 27.9121 27.9121
1.57 -1.48014 0.0 28.8511 28.8511
1.58 -2.2131 0.0 29.9531 29.9531
1.59 -2.91437 0.0 31.0604 31.0604
1.6 -3.49676 0.0 32.0228 32.0228
1.61 -3.88436 0.0 32.7154 32.7154
1.62 -4.02235 0.0 33.0514 33.0514
1.63 -3.88465 0.0 32.9927 32.9927
1.64 -3.47833 0.0 32.5573 32.5573
1.65 -2.84417 0.0 31.8152 31.8152
1.66 -2.05309 0.0 30.8801 30.8801
1.67 -1.19868 0.0 29.8977 29.8977
1.68 -0.386654 0.0 29.0277 29.0277
1.69 0.27775 0.0 28.4222 28.4222
1.7 0.702815 0.0 28.2132 28.2132
1.71 0.822402 0.0 28.4866 28.4866
1.72 0.605421 0.0 29.2816 29.2816
1.73 0.0614393 0.0 30.5746 30.5746
1.74 -0.758442 0.0 32.2874 32.2874
1.75 -1.76581 0.0 34.2878 34.2878
1.76 -2.84399 0.0 36.412 36.412
1.77 -3.86113 0.0 38.4721 38.4721
1.78 -4.68584 0.0 40.2858 40.2858
1.79 -5.20369 0.0 41.6937 41.6937
1.8 -5.33259 0.0 42.5766 42.5766
1.81 -5.03504 0.0 42.873 42.873
1.82 -4.3256 0.0 42.5876 42.5876
1.83 -3.27229 0.0 41.7923 41.7923
1.84 -1.99151 0.0 40.6185 40.6185
1.85 -0.636404 0.0 39.2474 39.2474
1.86 0.620024 0.0 37.887 37.887
1.87 1.60564 0.0 36.7524 36.7524
1.88 2.17126 0.0 36.0427 36.0427
1.89 2.21154 0.0 35.9125 35.9125
1.9 1.68195 0.0 36.458 36.458
1.91 0.609405 0.0 37.6986 37.6986
1.92 -0.905481 0.0 39.5765 39.5765
1.93 -2.69548 0.0 41.9535 41.9535
1.94 -4.54345 0.0 44.6245 44.6245
1.95 -6.20761 0.0 47.3326 47.3326
1.96 -7.45345 0.0 49.8004 49.8004
1.97 -8.08922 0.0 51.7462 51.7462
1.98 -8.00156 0.0 52.9206 52.9206
1.99 -7.18713 0.0 53.1291 53.1291
2 -5.77641 0.0 52.2514 52.2514
2.01 -4.0462 0.0 50.2572 50.2572
2.02 -2.4183 0.0 47.2123 47.2123
2.03 -1.4428 0.0 43.2738 43.2738
2.04 -1.76613 0.0 38.6761 38.6761
2.05 -4.08543 0.0 33.7134 33.7134
2.06 -9.09202 0.0 28.712 28.712
2.07 -17.4086 0.0 24.0016 24.0016
2.08 -29.5249 0.0 19.8859 19.8859
2.09 -45.7381 0.0 16.6151 16.6151
2.1 -66.1034 0.0 14.3644 14.3644
2.11 -90.3997 0.0 13.2207 13.2207
2.12 -118.115 0.0 13.1748 13.1748
2.13 -148.453 0.0 14.1216 14.1216
2.14 -180.364 0.0 15.8809 15.8809
2.15 -212.597 0.0 18.2044 18.2044
2.16 -243.771 0.0 20.8078 20.8078
2.17 -272.455 0.0 23.3982 23.3982
2.18 -297.267 0.0 25.6939 25.6939
2.19 -316.96 0.0 27.459 27.459
2.2 -330.513 0.0 28.5139 28.5139
2.21 -337.2 0.0 28.7601 28.7601
2.22 -336.645 0.0 28.1713 28.1713
2.23 -328.85 0.0 26.8083 26.8083
2.24 -314.197 0.0 24.7948 24.7948
2.25 -293.422 0.0 22.3092 22.3092
2.26 -267.569 0.0 19.5673 19.5673
2.27 -237.915 0.0 16.7911 16.7911
2.28 -205.885 0.0 14.1966 14.1966
2.29 -172.955 0.0 11.9702 11.9702
2.3 -140.56 0.0 10.2507 10.2507
2.31 -109.997 0.0 9.12679 9.12679
2.32 -82.3534 0.0 8.6264 8.6264
2.33 -58.4469 0.0 8.72488 8.72488
2.34 -38.7896 0.0 9.34662 9.34662
2.35 -23.5784 0.0 10.3824 10.3824
2.36 -12.7083 0.0 11.7033 11.7033
2.37 -5.80891 0.0 13.1709 13.1709
2.38 -2.29871 0.0 14.6597 14.6597
2.39 -1.45185 0.0 16.0599 16.0599
2.4 -2.47155 0.0 17.2935 17.2935
2.41 -4.56292 0.0 18.3129 18.3129
2.42 -6.99936 0.0 19.1014 19.1014
2.43 -9.17676 0.0 19.6688 19.6688
2.44 -10.6518 0.0 20.0438 20.0438
2.45 -11.162 0.0 20.263 20.263
2.46 -10.6263 0.0 20.3653 20.3653
2.47 -9.12893 0.0 20.3759 20.3759
2.48 -6.88769 0.0 20.3087 20.3087
2.49 -4.21209 0.0 20.1541 20.1541
2.5 -1.45566 0.0 19.8857 19.8857
2.51 1.03218 0.0 19.4588 19.4588
2.52 2.94971 0.0 18.8233 18.8233
2.53 4.07772 0.0 17.9243 17.9243
2.54 4.30242 0.0 16.7186 16.7186
2.55 3.62466 0.0 15.1803 15.1803
2.56 2.15529 0.0 13.3107 13.3107
2.57 0.0978228 0.0 11.1362 11.1362
2.58 -2.27902 0.0 8.72102 8.72102
2.59 -4.67534 0.0 6.15134 6.15134
2.6 -6.79661 0.0 3.53861 3.53861
2.61 -8.38855 0.0 1.00555 1.00555
2.62 -9.26634 0.0 -1.32566 -1.32566
2.63 -9.33509 0.0 -3.34691 -3.34691
2.64 -8.59939 0.0 -4.97061 -4.97061
2.65 -7.16112 0.0 -6.14488 -6.14488
2.66 -5.20596 0.0 -6.85804 -6.85804
2.67 -2.98033 0.0 -7.14267 -7.14267
2.68 -0.761479 0.0 -7.07052 -7.07052
2.69 1.17578 0.0 -6.74878 -6.74878
2.7 2.5918 0.0 -6.3108 -6.3108
2.71 3.31068 0.0 -5.89968 -5.89968
2.72 3.24127 0.0 -5.65827 -5.65827
2.73 2.38833 0.0 -5.71233 -5.71233
2.74 0.852422 0.0 -6.15942 -6.15942
2.75 -1.18144 0.0 -7.05956 -7.05956
2.76 -3.46528 0.0 -8.42772 -8.42772
2.77 -5.71725 0.0 -10.2337 -10.2337
2.78 -7.6553 0.0 -12.4057 -12.4057
2.79 -9.03128 0.0 -14.8367 -14.8367
2.8 -9.66182 0.0 -17.3962 -17.3962
2.81 -9.45195 0.0 -19.9411 -19.9411
2.82 -8.40858 0.0 -22.3334 -22.3334
2.83 -6.64176 0.0 -24.4482 -24.4482
2.84 -4.35285 0.0 -26.1881 -26.1881
2.85 -1.81031 0.0 -27.4897 -27.4897
2.86 0.68497 0.0 -28.329 -28.329
2.87 2.84166 0.0 -28.7177 -28.7177
2.88 4.42307 0.0 -28.7061 -28.7061
2.89 5.29077 0.0 -28.3668 -28.3668
2.9 5.44186 0.0 -27.7939 -27.7939
2.91 5.03544 0.0 -27.0844 -27.0844
2.92 4.40485 0.0 -26.3368 -26.3368
2.93 4.05291 0.0 -25.6309 -25.6309
2.94 4.62956 0.0 -25.0286 -25.0286
2.95 6.89231 0.0 -24.5703 -24.5703
2.96 11.6519 0.0 -24.2689 -24.2689
2.97 19.7071 0.0 -24.1171 -24.1171
2.98 31.7732 0.0 -24.0922 -24.0922
2.99 48.4108 0.0 -24.1618 -24.1618
3 69.9601 0.0 -24.2931 -24.2931
3.01 96.4872 0.0 -24.4632 -24.4632
3.02 127.747 0.0 -24.6605 -24.6605
3.03 163.17 0.0 -24.892 -24.892
3.04 201.865 0.0 -25.185 -25.185
3.05 242.656 0.0 -25.5819 -25.5819
3.06 284.134 0.0 -26.1415 -26.1415
3.07 324.73 0.0 -26.9225 -26.9225
3.08 362.805 0.0 -27.983 -27.983
3.09 396.747 0.0 -29.367 -29.367
3.1 425.067 0.0 -31.0948 -31.0948
3.11 446.493 0.0 -33.1616 -33.1616
3.12 460.049 0.0 -35.5251 -35.5251
3.13 465.12 0.0 -38.1121 -38.1121
3.14 461.487 0.0 -40.8186 -40.8186
3.15 449.34 0.0 -43.5177 -43.5177
3.16 429.267 0.0 -46.0674 -46.0674
3.17 402.214 0.0 -48.3233 -48.3233
3.18 369.421 0.0 -50.1526 -50.1526
3.19 332.342 0.0 -51.4418 -51.4418
3.2 292.557 0.0 -52.1142 -52.1142
3.21 251.674 0.0 -52.1322 -52.1322
3.22 211.233 0.0 -51.5029 -51.5029
3.23 172.622 0.0 -50.2787 -50.2787
3.24 137.005 0.0 -48.5542 -48.5542
3.25 105.274 0.0 -46.4565 -46.4565
3.26 78.0116 0.0 -44.1376 -44.1376
3.27 55.4929 0.0 -41.7579 -41.7579
3.28 37.6951 0.0 -39.4771 -39.4771
3.29 24.3348 0.0 -37.4418 -37.4418
3.3 14.919 0.0 -35.769 -35.769
3.31 8.80615 0.0 -34.5442 -34.5442
3.32 5.27303 0.0 -33.816 -33.816
3.33 3.58026 0.0 -33.5923 -33.5923
3.34 3.03197 0.0 -33.843 -33.843
3.35 3.02474 0.0 -34.5117 -34.5117
3.36 3.08276 0.0 -35.5138 -35.5138
3.37 2.87721 0.0 -36.7552 -36.7552
3.38 2.22976 0.0 -38.1368 -38.1368
3.39 1.10122 0.0 -39.5622 -39.5622
3.4 -0.431944 0.0 -40.9531 -40.9531
3.41 -2.21003 0.0 -42.244 -42.244
3.42 -4.02706 0.0 -43.3919 -43.3919
3.43 -5.66817 0.0 -44.3728 -44.3728
3.44 -6.94351 0.0 -45.1815 -45.1815
3.45 -7.71499 0.0 -45.827 -45.827
3.46 -7.91387 0.0 -46.3271 -46.3271
3.47 -7.54757 0.0 -46.7024 -46.7024
3.48 -6.69605 0.0 -46.973 -46.973
3.49 -5.49864 0.0 -47.1524 -47.1524
3.5 -4.13381 0.0 -47.2492 -47.2492
3.51 -2.79464 0.0 -47.2634 -47.2634
3.52 -1.66338 0.0 -47.1896 -47.1896
3.53 -0.888505 0.0 -47.0195 -47.0195
3.54 -0.567126 0.0 -46.7439 -46.7439
3.55 -0.735115 0.0 -46.3619 -46.3619
3.56 -1.36619 0.0 -45.8748 -45.8748
3.57 -2.38022 0.0 -45.2988 -45.2988
3.58 -3.65974 0.0 -44.6593 -44.6593
3.59 -5.07289 0.0 -43.9901 -43.9901
3.6 -6.49983 0.0 -43.3342 -43.3342
3.61 -7.85949 0.0 -42.7365 -42.7365
3.62 -9.13324 0.0 -42.2388 -42.2388
3.63 -10.3822 0.0 -41.8778 -41.8778
3.64 -11.7558 0.0 -41.6732 -41.6732
3.65 -13.4895 0.0 -41.6305 -41.6305
3.66 -15.8917 0.0 -41.7353 -41.7353
3.67 -19.32 0.0 -41.956 -41.956
3.68 -24.1486 0.0 -42.2424 -42.2424
3.69 -30.7299 0.0 -42.5341 -42.5341
3.7 -39.3539 0.0 -42.7661 -42.7661
3.71 -50.2095 0.0 -42.8775 -42.8775
3.72 -63.3505 0.0 -42.8175 -42.8175
3.73 -78.6723 0.0 -42.5537 -42.5537
3.74 -95.8997 0.0 -42.0783 -42.0783
3.75 -114.589 0.0 -41.4098 -41.4098
3.76 -134.145 0.0 -40.5985 -40.5985
3.77 -153.852 0.0 -39.7151 -39.7151
3.78 -172.912 0.0 -38.852 -38.852
3.79 -190.5 0.0 -38.1128 -38.1128
3.8 -205.816 0.0 -37.5994 -37.5994
3.81 -218.137 0.0 -37.4062 -37.4062
3.82 -226.872 0.0 -37.6034 -37.6034
3.83 -231.597 0.0 -38.2346 -38.2346
3.84 -232.09 0.0 -39.3015 -39.3015
3.85 -228.34 0.0 -40.7711 -40.7711
3.86 -220.547 0.0 -42.5693 -42.5693
3.87 -209.107 0.0 -44.5889 -44.5889
3.88 -194.583 0.0 -46.6958 -46.6958
3.89 -177.662 0.0 -48.7441 -48.7441
3.9 -159.107 0.0 -50.5857 -50.5857
3.91 -139.709 0.0 -52.084 -52.084
3.92 -120.233 0.0 -53.13 -53.13
3.93 -101.375 0.0 -53.6476 -53.6476
3.94 -83.7261 0.0 -53.6079 -53.6079
3.95 -67.7423 0.0 -53.0257 -53.0257
3.96 -53.7337 0.0 -51.9633 -51.9633
3.97 -41.8605 0.0 -50.5235 -50.5235
3.98 -32.1423 0.0 -48.8377 -48.8377
3.99 -24.4769 0.0 -47.0601 -47.0601
4 -18.6656 0.0 -45.3464 -45.3464
4.01 -14.4433 0.0 -43.8467 -43.8467
4.02 -11.5092 0.0 -42.6848 -42.6848
4.03 -9.55592 0.0 -41.9521 -41.9521
4.04 -8.29512 0.0 -41.7009 -41.7009
4.05 -7.47638 0.0 -41.9346 -41.9346
4.06 -6.90015 0.0 -42.6158 -42.6158
4.07 -6.42329 0.0 -43.6657 -43.6657
4.08 -5.9583 0.0 -44.9777 -44.9777
4.09 -5.46714 0.0 -46.4219 -46.4219
4.1 -4.95114 0.0 -47.8669 -47.8669
4.11 -4.43868 0.0 -49.1843 -49.1843
4.12 -3.97225 0.0 -50.2647 -50.2647
4.13 -3.59637 0.0 -51.0286 -51.0286
4.14 -3.3473 0.0 -51.4297 -51.4297
4.15 -3.24547 0.0 -51.4575 -51.4575
4.16 -3.29053 0.0 -51.1385 -51.1385
4.17 -3.4591 0.0 -50.5319 -50.5319
4.18 -3.7046 0.0 -49.7184 -49.7184
4.19 -3.95864 0.0 -48.7924 -48.7924
4.2 -4.1332 0.0 -47.8518 -47.8518
4.21 -4.12323 0.0 -46.9868 -46.9868
4.22 -3.80921 0.0 -46.2688 -46.2688
4.23 -3.05964 0.0 -45.7484 -45.7484
4.24 -1.73378 0.0 -45.4472 -45.4472
4.25 0.315062 0.0 -45.3581 -45.3581
4.26 3.23509 0.0 -45.4471 -45.4471
4.27 7.16983 0.0 -45.6588 -45.6588
4.28 12.2499 0.0 -45.9279 -45.9279
4.29 18.5828 0.0 -46.1788 -46.1788
4.3 26.2403 0.0 -46.3423 -46.3423
4.31 35.2453 0.0 -46.3593 -46.3593
4.32 45.5583 0.0 -46.1883 -46.1883
4.33 57.0655 0.0 -45.8105 -45.8105
4.34 69.5703 0.0 -45.2283 -45.2283
4.35 82.7887 0.0 -44.4707 -44.4707
4.36 96.3526 0.0 -43.5786 -43.5786
4.37 109.819 0.0 -42.6097 -42.6097
4.38 122.686 0.0 -41.6265 -41.6265
4.39 134.422 0.0 -40.6893 -40.6893
4.4 144.491 0.0 -39.8497 -39.8497
4.41 152.389 0.0 -39.1469 -39.1469
4.42 157.683 0.0 -38.6003 -38.6003
4.43 160.044 0.0 -38.2098 -38.2098
4.44 159.273 0.0 -37.9563 -37.9563
4.45 155.33 0.0 -37.8057 -37.8057
4.46 148.336 0.0 -37.7103 -37.7103
4.47 138.581 0.0 -37.6169 -37.6169
4.48 126.501 0.0 -37.4752 -37.4752
4.49 112.658 0.0 -37.2362 -37.2362
4.5 97.6989 0.0 -36.8669 -36.8669
4.51 82.311 0.0 -36.349 -36.349
4.52 67.1744 0.0 -35.6784 -35.6784
4.53 52.9118 0.0 -34.8708 -34.8708
4.54 40.0457 0.0 -33.9537 -33.9537
4.55 28.9627 0.0 -32.9697 -32.9697
4.56 19.8915 0.0 -31.9635 -31.9635
4.57 12.8939 0.0 -30.9829 -30.9829
4.58 7.87232 0.0 -30.0713 -30.0713
4.59 4.59077 0.0 -29.2638 -29.2638
4.6 2.70861 0.0 -28.5826 -28.5826
4.61 1.82267 0.0 -28.0377 -28.0377
4.62 1.51361 0.0 -27.6256 -27.6256
4.63 1.39121 0.0 -27.3312 -27.3312
4.64 1.13385 0.0 -27.1279 -27.1279
4.65 0.517421 0.0 -26.9894 -26.9894
4.66 -0.569523 0.0 -26.8835 -26.8835
4.67 -2.12643 0.0 -26.7856 -26.7856
4.68 -4.0574 0.0 -26.6756 -26.6756
4.69 -6.2022 0.0 -26.5428 -26.5428
4.7 -8.37839 0.0 -26.3876 -26.3876
4.71 -10.4297 0.0 -26.2173 -26.2173
4.72 -12.2752 0.0 -26.0488 -26.0488
4.73 -13.953 0.0 -25.901 -25.901
4.74 -15.6527 0.0 -25.7953 -25.7953
4.75 -17.7319 0.0 -25.7491 -25.7491
4.76 -20.7135 0.0 -25.7695 -25.7695
4.77 -25.261 0.0 -25.857 -25.857
4.78 -32.1351 0.0 -25.9999 -25.9999
4.79 -42.1314 0.0 -26.1766 -26.1766
4.8 -56.0061 0.0 -26.3549 -26.3549
4.81 -74.3957 0.0 -26.4953 -26.4953
4.82 -97.7376 0.0 -26.5594 -26.5594
4.83 -126.2 0.0 -26.5101 -26.5101
4.84 -159.628 0.0 -26.3201 -26.3201
4.85 -197.513 0.0 -25.9718 -25.9718
4.86 -238.99 0.0 -25.4664 -25.4664
4.87 -282.858 0.0 -24.8169 -24.8169
4.88 -327.64 0.0 -24.0617 -24.0617
4.89 -371.658 0.0 -23.2435 -23.2435
4.9 -413.129 0.0 -22.4249 -22.4249
4.91 -450.284 0.0 -21.6654 -21.6654
4.92 -481.473 0.0 -21.0299 -21.0299
4.93 -505.283 0.0 -20.5664 -20.5664
4.94 -520.624 0.0 -20.315 -20.315
4.95 -526.809 0.0 -20.2891 -20.2891
4.96 -523.593 0.0 -20.4823 -20.4823
4.97 -511.187 0.0 -20.8636 -20.8636
4.98 -490.243 0.0 -21.3725 -21.3725
4.99 -461.795 0.0 -21.9329 -21.9329
5 -427.195 0.0 -22.4484 -22.4484
5.01 -388.009 0.0 -22.8194 -22.8194
5.02 -345.917 0.0 -22.9463 -22.9463
5.03 -302.603 0.0 -22.7359 -22.7359
5.04 -259.655 0.0 -22.1181 -22.1181
5.05 -218.474 0.0 -21.0396 -21.0396
5.06 -180.211 0.0 -19.4858 -19.4858
5.07 -145.719 0.0 -17.4657 -17.4657
5.08 -115.539 0.0 -15.0271 -15.0271
5.09 -89.9035 0.0 -12.2375 -12.2375
5.1 -68.7687 0.0 -9.19828 -9.19828
5.11 -51.8584 0.0 -6.01859 -6.01859
5.12 -38.7214 0.0 -2.82063 -2.82063
5.13 -28.7925 0.0 0.281451 0.281451
5.14 -21.4515 0.0 3.17746 3.17746
5.15 -16.0742 0.0 5.78022 5.78022
5.16 -12.0715 0.0 8.02154 8.02154
5.17 -8.91363 0.0 9.86563 9.86563
5.18 -6.13942 0.0 11.3034 11.3034
5.19 -3.35215 0.0 12.3511 12.3511
5.2 -0.20429 0.0 13.0513 13.0513
5.21 3.62388 0.0 13.4641 13.4641
5.22 8.44728 0.0 13.6587 13.6587
5.23 14.5955 0.0 13.7125 13.7125
5.24 22.4246 0.0 13.6964 13.6964
5.25 32.3173 0.0 13.6767 13.6767
5.26 44.6713 0.0 13.7017 13.7017
5.27 59.8739 0.0 13.8061 13.8061
5.28 78.2661 0.0 14.0069 14.0069
5.29 100.099 0.0 14.3055 14.3055
5.3 125.49 0.0 14.6909 14.6909
5.31 154.375 0.0 15.1411 15.1411
5.32 186.477 0.0 15.632 15.632
5.33 221.284 0.0 16.1385 16.1385
5.34 258.041 0.0 16.6466 16.6466
5.35 295.773 0.0 17.1454 17.1454
5.36 333.31 0.0 17.6407 17.6407
5.37 369.353 0.0 18.146 18.146
5.38 402.535 0.0 18.6928 18.6928
5.39 431.508 0.0 19.3084 19.3084
5.4 455.023 0.0 20.0364 20.0364
5.41 472.016 0.0 20.912 20.912
5.42 481.681 0.0 21.9635 21.9635
5.43 483.523 0.0 23.2073 23.2073
5.44 477.4 0.0 24.6445 24.6445
5.45 463.532 0.0 26.2574 26.2574
5.46 442.491 0.0 28.0032 28.0032
5.47 415.164 0.0 29.8278 29.8278
5.48 382.697 0.0 31.655 31.655
5.49 346.419 0.0 33.3994 33.3994
5.5 307.759 0.0 34.9684 34.9684
5.51 268.159 0.0 36.2758 36.2758
5.52 228.991 0.0 37.2435 37.2435
5.53 191.475 0.0 37.8066 37.8066
5.54 156.63 0.0 37.9275 37.9275
5.55 125.219 0.0 37.5877 37.5877
5.56 97.7418 0.0 36.8062 36.8062
5.57 74.4241 0.0 35.6229 35.6229
5.58 55.2437 0.0 34.1083 34.1083
5.59 39.9637 0.0 32.3513 32.3513
5.6 28.1807 0.0 30.4593 30.4593
5.61 19.3795 0.0 28.5445 28.5445
5.62 12.9895 0.0 26.7215 26.7215
5.63 8.43685 0.0 25.0942 25.0942
5.64 5.19066 0.0 23.7553 23.7553
5.65 2.79689 0.0 22.7731 22.7731
5.66 0.900586 0.0 22.1944 22.1944
5.67 -0.745271 0.0 22.0343 22.0343
5.68 -2.28305 0.0 22.288 22.288
5.69 -3.764 0.0 22.92 22.92
5.7 -5.16929 0.0 23.8803 23.8803
5.71 -6.43518 0.0 25.1002 25.1002
5.72 -7.47911 0.0 26.5031 26.5031
5.73 -8.22347 0.0 28.0125 28.0125
5.74 -8.61464 0.0 29.5546 29.5546
5.75 -8.63559 0.0 31.0636 31.0636
5.76 -8.31114 0.0 32.4911 32.4911
5.77 -7.70609 0.0 33.8001 33.8001
5.78 -6.91718 0.0 34.9742 34.9742
5.79 -6.06051 0.0 36.0125 36.0125
5.8 -5.25638 0.0 36.9284 36.9284
5.81 -4.61396 0.0 37.744 37.744
5.82 -4.21766 0.0 38.4937 38.4937
5.83 -4.11705 0.0 39.211 39.211
5.84 -4.32151 0.0 39.9305 39.9305
5.85 -4.80014 0.0 40.6841 40.6841
5.86 -5.48674 0.0 41.4957 41.4957
5.87 -6.28912 0.0 42.3831 42.3831
5.88 -7.1015 0.0 43.3535 43.3535
5.89 -7.81828 0.0 44.4083 44.4083
5.9 -8.34745 0.0 45.5434 45.5434
5.91 -8.622 0.0 46.746 46.746
5.92 -8.60798 0.0 48.004 48.004
5.93 -8.30801 0.0 49.304 49.304
5.94 -7.76016 0.0 50.6332 50.6332
5.95 -7.03193 0.0 51.9769 51.9769
5.96 -6.21032 0.0 53.3273 53.3273
5.97 -5.38891 0.0 54.6759 54.6759
5.98 -4.65341 0.0 56.0164 56.0164
5.99 -4.06728 0.0 57.3393 57.3393
6 -3.65909 0.0 58.6381 58.6381
6.01 -3.41277 0.0 59.9008 59.9008
6.02 -3.26205 0.0 61.1141 61.1141
6.03 -3.08967 0.0 62.2607 62.2607
6.04 -2.73144 0.0 63.3224 63.3224
6.05 -1.98512 0.0 64.2791 64.2791
6.06 -0.623121 0.0 65.1121 65.1121
6.07 1.59178 0.0 65.8072 65.8072
6.08 4.88904 0.0 66.356 66.356
6.09 9.47266 0.0 66.7593 66.7593
6.1 15.5045 0.0 67.0275 67.0275
6.11 23.0899 0.0 67.1851 67.1851
6.12 32.266 0.0 67.264 67.264
6.13 42.9949 0.0 67.3101 67.3101
6.14 55.1598 0.0 67.3742 67.3742
6.15 68.5665 0.0 67.5125 67.5125
6.16 82.9484 0.0 67.7786 67.7786
6.17 97.9757 0.0 68.2233 68.2233
6.18 113.267 0.0 68.8819 68.8819
6.19 128.405 0.0 69.7804 69.7804
6.2 142.95 0.0 70.9243 70.9243
6.21 156.461 0.0 72.301 72.301
6.22 168.512 0.0 73.874 73.874
6.23 178.708 0.0 75.5967 75.5967
6.24 186.705 0.0 77.4003 77.4003
6.25 192.22 0.0 79.2111 79.2111
6.26 195.05 0.0 80.9523 80.9523
6.27 195.077 0.0 82.5516 82.5516
6.28 192.28 0.0 83.9415 83.9415
6.29 186.734 0.0 85.0761 85.0761
6.3 178.609 0.0 85.9272 85.9272
6.31 168.167 0.0 86.4873 86.4873
6.32 155.749 0.0 86.7735 86.7735
6.33 141.759 0.0 86.824 86.824
6.34 126.647 0.0 86.6914 86.6914
6.35 110.88 0.0 86.4434 86.4434
6.36 94.9195 0.0 86.1465 86.1465
6.37 79.1931 0.0 85.8699 85.8699
6.38 64.0647 0.0 85.6703 85.6703
6.39 49.8109 0.0 85.5881 85.5881
6.4 36.5989 0.0 85.6441 85.6441
6.41 24.4708 0.0 85.8372 85.8372
6.42 13.3357 0.0 86.1393 86.1393
6.43 2.9701 0.0 86.5059 86.5059
6.44 -6.97185 0.0 86.8739 86.8739
6.45 -16.9393 0.0 87.1693 87.1693
6.46 -27.4561 0.0 87.3161 87.3161
6.47 -39.0851 0.0 87.2431 87.2431
6.48 -52.3866 0.0 86.8896 86.8896
6.49 -67.8739 0.0 86.2119 86.2119
6.5 -85.9685 0.0 85.1895 85.1895
6.51 -106.958 0.0 83.8245 83.8245
6.52 -130.963 0.0 82.1441 82.1441
6.53 -157.906 0.0 80.1938 80.1938
6.54 -187.499 0.0 78.0383 78.0383
6.55 -219.243 0.0 75.7472 75.7472
6.56 -252.436 0.0 73.3996 73.3996
6.57 -286.199 0.0 71.0621 71.0621
6.58 -319.519 0.0 68.7971 68.7971
6.59 -351.293 0.0 66.6482 66.6482
6.6 -380.388 0.0 64.6424 64.6424
6.61 -405.704 0.0 62.7846 62.7846
6.62 -426.232 0.0 61.0669 61.0669
6.63 -441.12 0.0 59.4598 59.4598
6.64 -449.719 0.0 57.9333 57.9333
6.65 -451.628 0.0 56.4524 56.4524
6.66 -446.718 0.0 54.9886 54.9886
6.67 -435.141 0.0 53.5198 53.5198
6.68 -417.329 0.0 52.0447 52.0447
6.69 -393.965 0.0 50.5797 50.5797
6.7 -365.946 0.0 49.1569 49.1569
6.71 -334.33 0.0 47.8307 47.8307
6.72 -300.271 0.0 46.6596 46.6596
6.73 -264.951 0.0 45.7191 45.7191
6.74 -229.511 0.0 45.0708 45.0708
6.75 -194.979 0.0 44.7747 44.7747
6.76 -162.213 0.0 44.8692 44.8692
6.77 -131.855 0.0 45.3657 45.3657
6.78 -104.293 0.0 46.2545 46.2545
6.79 -79.6506 0.0 47.4856 47.4856
6.8 -57.791 0.0 48.992 48.992
6.81 -38.3373 0.0 50.6703 50.6703
6.82 -20.7138 0.0 52.4098 52.4098
6.83 -4.20061 0.0 54.0866 54.0866
6.84 12.0015 0.0 55.5865 55.5865
6.85 28.6998 0.0 56.8012 56.8012
6.86 46.6375 0.0 57.6535 57.6535
6.87 66.426 0.0 58.095 58.095
6.88 88.4864 0.0 58.1166 58.1166
6.89 113.005 0.0 57.7449 57.7449
6.9 139.907 0.0 57.0485 57.0485
6.91 168.845 0.0 56.1228 56.1228
6.92 199.219 0.0 55.0881 55.0881
6.93 230.2 0.0 54.0746 54.0746
6.94 260.788 0.0 53.2142 53.2142
6.95 289.868 0.0 52.6178 52.6178
6.96 316.291 0.0 52.3751 52.3751
6.97 338.945 0.0 52.5378 52.5378
6.98 356.836 0.0 53.1144 53.1144
6.99 369.151 0.0 54.0662 54.0662
7 375.319 0.0 55.3135 55.3135
7.01 375.05 0.0 56.7341 56.7341
7.02 368.35 0.0 58.1785 58.1785
7.03 355.524 0.0 59.4807 59.4807
7.04 337.156 0.0 60.4712 60.4712
7.05 314.06 0.0 60.9887 60.9887
7.06 287.231 0.0 60.904 60.904
7.07 257.769 0.0 60.12 60.12
7.08 226.808 0.0 58.5872 58.5872
7.09 195.438 0.0 56.3052 56.3052
7.1 164.635 0.0 53.3299 53.3299
7.11 135.202 0.0 49.7574 49.7574
7.12 107.72 0.0 45.7287 45.7287
7.13 82.5278 0.0 41.4062 41.4062
7.14 59.7081 0.0 36.9719 36.9719
7.15 39.1051 0.0 32.5999 32.5999
7.16 20.3548 0.0 28.4542 28.4542
7.17 2.93294 0.0 24.6621 24.6621
7.18 -13.7862 0.0 21.3162 21.3162
7.19 -30.4637 0.0 18.4567 18.4567
7.2 -47.729 0.0 16.08 16.08
7.21 -66.1169 0.0 14.1269 14.1269
7.22 -86.0136 0.0 12.5006 12.5006
7.23 -107.616 0.0 11.0696 11.0696
7.24 -130.906 0.0 9.68355 9.68355
7.25 -155.645 0.0 8.18378 8.18378
7.26 -181.384 0.0 6.42444 6.42444
7.27 -207.493 0.0 4.2851 4.2851
7.28 -233.198 0.0 1.67544 1.67544
7.29 -257.64 0.0 -1.44535 -1.44535
7.3 -279.926 0.0 -5.06986 -5.06986
7.31 -299.198 0.0 -9.13604 -9.13604
7.32 -314.683 0.0 -13.5355 -13.5355
7.33 -325.75 0.0 -18.1181 -18.1181
7.34 -331.944 0.0 -22.7064 -22.7064
7.35 -333.017 0.0 -27.1 -27.1
7.36 -328.941 0.0 -31.103 -31.103
7.37 -319.903 0.0 -34.5305 -34.5305
7.38 -306.292 0.0 -37.2286 -37.2286
7.39 -288.668 0.0 -39.0821 -39.0821
7.4 -267.725 0.0 -40.0264 -40.0264
7.41 -244.247 0.0 -40.0559 -40.0559
7.42 -219.063 0.0 -39.2171 -39.2171
7.43 -192.995 0.0 -37.6177 -37.6177
7.44 -166.821 0.0 -35.4053 -35.4053
7.45 -141.231 0.0 -32.7682 -32.7682
7.46 -116.804 0.0 -29.9138 -29.9138
7.47 -93.9871 0.0 -27.0609 -27.0609
7.48 -73.0838 0.0 -24.4162 -24.4162
7.49 -54.2577 0.0 -22.1653 -22.1653
7.5 -37.5407 0.0 -20.4543 -20.4543
7.51 -22.85 0.0 -19.382 -19.382
7.52 -10.0115 0.0 -18.9985 -18.9985
7.53 1.21431 0.0 -19.2903 -19.2903
7.54 11.1043 0.0 -20.1973 -20.1973
7.55 19.9453 0.0 -21.6083 -21.6083
7.56 28.0089 0.0 -23.3739 -23.3739
7.57 35.5307 0.0 -25.3217 -25.3217
7.58 42.6938 0.0 -27.2728 -27.2728
7.59 49.6186 0.0 -29.0486 -29.0486
7.6 56.3581 0.0 -30.4981 -30.4981
7.61 62.8991 0.0 -31.5001 -31.5001
7.62 69.1684 0.0 -31.9814 -31.9814
7.63 75.0435 0.0 -31.9165 -31.9165
7.64 80.3662 0.0 -31.3382 -31.3382
7.65 84.9586 0.0 -30.3256 -30.3256
7.66 88.6383 0.0 -29.0023 -29.0023
7.67 91.2348 0.0 -27.5268 -27.5268
7.68 92.6016 0.0 -26.0766 -26.0766
7.69 92.6274 0.0 -24.8334 -24.8334
7.7 91.2419 0.0 -23.9679 -23.9679
7.71 88.4182 0.0 -23.6222 -23.6222
7.72 84.1711 0.0 -23.9021 -23.9021
7.73 78.5513 0.0 -24.8623 -24.8623
7.74 71.636 0.0 -26.506 -26.506
7.75 63.5184 0.0 -28.7784 -28.7784
7.76 54.2949 0.0 -31.5789 -31.5789
7.77 44.0537 0.0 -34.7597 -34.7597
7.78 32.8646 0.0 -38.1486 -38.1486
7.79 20.7719 0.0 -41.5529 -41.5529
7.8 7.79129 0.0 -44.7863 -44.7863
7.81 -6.08851 0.0 -47.6755 -47.6755
7.82 -20.8994 0.0 -50.0816 -50.0816
7.83 -36.6827 0.0 -51.9063 -51.9063
7.84 -53.4746 0.0 -53.1044 -53.1044
7.85 -71.2883 0.0 -53.6807 -53.6807
7.86 -90.0961 0.0 -53.6979 -53.6979
7.87 -109.811 0.0 -53.2587 -53.2587
7.88 -130.274 0.0 -52.505 -52.505
7.89 -151.241 0.0 -51.5983 -51.5983
7.9 -172.381 0.0 -50.7112 -50.7112
7.91 -193.28 0.0 -50.0002 -50.0002
7.92 -213.45 0.0 -49.6059 -49.6059
7.93 -232.35 0.0 -49.6272 -49.6272
7.94 -249.407 0.0 -50.1229 -50.1229
7.95 -264.05 0.0 -51.0998 -51.0998
7.96 -275.738 0.0 -52.5176 -52.5176
7.97 -283.995 0.0 -54.2921 -54.2921
7.98 -288.435 0.0 -56.3013 -56.3013
7.99 -288.788 0.0 -58.4029 -58.4029
8 -284.917 0.0 -60.4433 -60.4433
8.01 -276.819 0.0 -62.2743 -62.2743
8.02 -264.625 0.0 -63.7638 -63.7638
8.03 -248.586 0.0 -64.8111 -64.8111
8.04 -229.046 0.0 -65.3543 -65.3543
8.05 -206.415 0.0 -65.3702 -65.3702
8.06 -181.134 0.0 -64.8826 -64.8826
8.07 -153.641 0.0 -63.9552 -63.9552
8.08 -124.333 0.0 -62.676 -62.676
8.09 -93.5456 0.0 -61.1614 -61.1614
8.1 -61.5301 0.0 -59.5369 -59.5369
8.11 -28.4477 0.0 -57.9223 -57.9223
8.12 5.62702 0.0 -56.422 -56.422
8.13 40.6897 0.0 -55.1167 -55.1167
8.14 76.78 0.0 -54.06 -54.06
8.15 113.947 0.0 -53.2685 -53.2685
8.16 152.212 0.0 -52.7167 -52.7167
8.17 191.523 0.0 -52.3587 -52.3587
8.18 231.724 0.0 -52.1184 -52.1184
8.19 272.525 0.0 -51.91 -51.91
8.2 313.479 0.0 -51.6291 -51.6291
8.21 353.983 0.0 -51.1912 -51.1912
8.22 393.286 0.0 -50.5178 -50.5178
8.23 430.514 0.0 -49.5579 -49.5579
8.24 464.712 0.0 -48.2788 -48.2788
8.25 494.893 0.0 -46.6847 -46.6847
8.26 520.097 0.0 -44.8077 -44.8077
8.27 539.452 0.0 -42.7 -42.7
8.28 552.235 0.0 -40.4409 -40.4409
8.29 557.922 0.0 -38.1107 -38.1107
8.3 556.23 0.0 -35.8023 -35.8023
8.31 547.147 0.0 -33.6045 -33.6045
8.32 530.933 0.0 -31.5865 -31.5865
8.33 508.123 0.0 -29.814 -29.814
8.34 479.49 0.0 -28.3237 -28.3237
8.35 446.009 0.0 -27.1351 -27.1351
8.36 408.805 0.0 -26.2466 -26.2466
8.37 369.085 0.0 -25.6474 -25.6474
8.38 328.082 0.0 -25.3088 -25.3088
8.39 286.982 0.0 -25.195 -25.195
8.4 246.875 0.0 -25.2637 -25.2637
8.41 208.702 0.0 -25.4901 -25.4901
8.42 173.225 0.0 -25.8368 -25.8368
8.43 141.002 0.0 -26.2825 -26.2825
8.44 112.388 0.0 -26.8078 -26.8078
8.45 87.5351 0.0 -27.4071 -27.4071
8.46 66.421 0.0 -28.071 -28.071
8.47 48.873 0.0 -28.792 -28.792
8.48 34.6051 0.0 -29.5641 -29.5641
8.49 23.255 0.0 -30.375 -30.375
8.5 14.4197 0.0 -31.2067 -31.2067
8.51 7.68852 0.0 -32.0365 -32.0365
8.52 2.6688 0.0 -32.8318 -32.8318
8.53 -0.994826 0.0 -33.5612 -33.5612
8.54 -3.60897 0.0 -34.192 -34.192
8.55 -5.42708 0.0 -34.6949 -34.6949
8.56 -6.65092 0.0 -35.0471 -35.0471
8.57 -7.4362 0.0 -35.2368 -35.2368
8.58 -7.90068 0.0 -35.2613 -35.2613
8.59 -8.13265 0.0 -35.1363 -35.1363
8.6 -8.19854 0.0 -34.8845 -34.8845
8.61 -8.14817 0.0 -34.5398 -34.5398
8.62 -8.01752 0.0 -34.1405 -34.1405
8.63 -7.82865 0.0 -33.7234 -33.7234
8.64 -7.58765 0.0 -33.3223 -33.3223
8.65 -7.28151 0.0 -32.9595 -32.9595
8.66 -6.87503 0.0 -32.641 -32.641
8.67 -6.30931 0.0 -32.3557 -32.3557
8.68 -5.50254 0.0 -32.0755 -32.0755
8.69 -4.35422 0.0 -31.7548 -31.7548
8.7 -2.75269 0.0 -31.3363 -31.3363
8.71 -0.585983 0.0 -30.757 -30.757
8.72 2.2451 0.0 -29.9541 -29.9541
8.73 5.81274 0.0 -28.8767 -28.8767
8.74 10.1485 0.0 -27.4875 -27.4875
8.75 15.2316 0.0 -25.7756 -25.7756
8.76 20.9816 0.0 -23.7566 -23.7566
8.77 27.2551 0.0 -21.4781 -21.4781
8.78 33.8488 0.0 -19.0148 -19.0148
8.79 40.5084 0.0 -16.4664 -16.4664
8.8 46.9422 0.0 -13.9502 -13.9502
8.81 52.8386 0.0 -11.5916 -11.5916
8.82 57.8868 0.0 -9.51081 -9.51081
8.83 61.7962 0.0 -7.81622 -7.81622
8.84 64.3149 0.0 -6.59093 -6.59093
8.85 65.2436 0.0 -5.88256 -5.88256
8.86 64.4436 0.0 -5.70464 -5.70464
8.87 61.8393 0.0 -6.02727 -6.02727
8.88 57.4119 0.0 -6.78386 -6.78386
8.89 51.1885 0.0 -7.87454 -7.87454
8.9 43.2257 0.0 -9.17675 -9.17675
8.91 33.5897 0.0 -10.5567 -10.5567
8.92 22.3369 0.0 -11.8829 -11.8829
8.93 9.49609 0.0 -13.0371 -13.0371
8.94 -4.94381 0.0 -13.9272 -13.9272
8.95 -21.0398 0.0 -14.5012 -14.5012
8.96 -38.8919 0.0 -14.7461 -14.7461
8.97 -58.6315 0.0 -14.6905 -14.6905
8.98 -80.4013 0.0 -14.4067 -14.4067
8.99 -104.328 0.0 -14.0051 -14.0051
9 -130.49 0.0 -13.6142 -13.6142
9.01 -158.884 0.0 -13.3777 -13.3777
9.02 -189.395 0.0 -13.4348 -13.4348
9.03 -221.767 0.0 -13.9057 -13.9057
9.04 -255.588 0.0 -14.8928 -14.8928
9.05 -290.282 0.0 -16.4468 -16.4468
9.06 -325.117 0.0 -18.5792 -18.5792
9.07 -359.223 0.0 -21.2514 -21.2514
9.08 -391.626 0.0 -24.389 -24.389
9.09 -421.293 0.0 -27.8715 -27.8715
9.1 -447.178 0.0 -31.5548 -31.5548
9.11 -468.285 0.0 -35.2762 -35.2762
9.12 -483.715 0.0 -38.8813 -38.8813
9.13 -492.722 0.0 -42.2197 -42.2197
9.14 -494.756 0.0 -45.1673 -45.1673
9.15 -489.488 0.0 -47.6365 -47.6365
9.16 -476.832 0.0 -49.575 -49.575
9.17 -456.946 0.0 -50.9775 -50.9775
9.18 -430.218 0.0 -51.8736 -51.8736
9.19 -397.239 0.0 -52.3278 -52.3278
9.2 -358.768 0.0 -52.4254 -52.4254
9.21 -315.685 0.0 -52.2681 -52.2681
9.22 -268.947 0.0 -51.9597 -51.9597
9.23 -219.539 0.0 -51.5999 -51.5999
9.24 -168.429 0.0 -51.2506 -51.2506
9.25 -116.536 0.0 -50.9676 -50.9676
9.26 -64.7013 0.0 -50.7697 -50.7697
9.27 -13.6729 0.0 -50.6421 -50.6421
9.28 35.8975 0.0 -50.5525 -50.5525
9.29 83.4516 0.0 -50.4306 -50.4306
9.3 128.512 0.0 -50.2051 -50.2051
9.31 170.666 0.0 -49.8017 -49.8017
9.32 209.545 0.0 -49.1488 -49.1488
9.33 244.81 0.0 -48.1847 -48.1847
9.34 276.136 0.0 -46.8777 -46.8777
9.35 303.205 0.0 -45.2244 -45.2244
9.36 325.708 0.0 -43.2474 -43.2474
9.37 343.349 0.0 -40.9958 -40.9958
9.38 355.859 0.0 -38.5482 -38.5482
9.39 363.02 0.0 -36.0054 -36.0054
9.4 364.683 0.0 -33.4765 -33.4765
9.41 360.792 0.0 -31.0734 -31.0734
9.42 351.405 0.0 -28.9086 -28.9086
9.43 336.705 0.0 -27.0774 -27.0774
9.44 317.016 0.0 -25.6593 -25.6593
9.45 292.793 0.0 -24.7143 -24.7143
9.46 264.617 0.0 -24.2729 -24.2729
9.47 233.172 0.0 -24.3432 -24.3432
9.48 199.222 0.0 -24.9041 -24.9041
9.49 163.574 0.0 -25.9289 -25.9289
9.5 127.044 0.0 -27.3629 -27.3629
9.51 90.4205 0.0 -29.1455 -29.1455
9.52 54.4318 0.0 -31.2118 -31.2118
9.53 19.7167 0.0 -33.4917 -33.4917
9.54 -13.1943 0.0 -35.9287 -35.9287
9.55 -43.8912 0.0 -38.4608 -38.4608
9.56 -72.0853 0.0 -41.0387 -41.0387
9.57 -97.6021 0.0 -43.6159 -43.6159
9.58 -120.366 0.0 -46.1613 -46.1613
9.59 -140.376 0.0 -48.6436 -48.6436
9.6 -157.686 0.0 -51.0401 -51.0401
9.61 -172.37 0.0 -53.3297 -53.3297
9.62 -184.506 0.0 -55.4953 -55.4953
9.63 -194.147 0.0 -57.5278 -57.5278
9.64 -201.314 0.0 -59.4127 -59.4127
9.65 -205.984 0.0 -61.1413 -61.1413
9.66 -208.089 0.0 -62.7106 -62.7106
9.67 -207.531 0.0 -64.118 -64.118
9.68 -204.188 0.0 -65.364 -65.364
9.69 -197.939 0.0 -66.4501 -66.4501
9.7 -188.684 0.0 -67.3815 -67.3815
9.71 -176.366 0.0 -68.1623 -68.1623
9.72 -160.994 0.0 -68.7961 -68.7961
9.73 -142.658 0.0 -69.286 -69.286
9.74 -121.541 0.0 -69.623 -69.623
9.75 -97.9241 0.0 -69.8009 -69.8009
9.76 -72.184 0.0 -69.801 -69.801
9.77 -44.7843 0.0 -69.6027 -69.6027
9.78 -16.2606 0.0 -69.1834 -69.1834
9.79 12.7997 0.0 -68.5097 -68.5097
9.8 41.7797 0.0 -67.5567 -67.5567
9.81 70.0573 0.0 -66.3033 -66.3033
9.82 97.0283 0.0 -64.7403 -64.7403
9.83 122.128 0.0 -62.8615 -62.8615
9.84 144.846 0.0 -60.6858 -60.6858
9.85 164.743 0.0 -58.2439 -58.2439
9.86 181.454 0.0 -55.5854 -55.5854
9.87 194.694 0.0 -52.7724 -52.7724
9.88 204.253 0.0 -49.8789 -49.8789
9.89 209.99 0.0 -46.9872 -46.9872
9.9 211.828 0.0 -44.1821 -44.1821
9.91 209.74 0.0 -41.5365 -41.5365
9.92 203.744 0.0 -39.1188 -39.1188
9.93 193.889 0.0 -36.9752 -36.9752
9.94 180.257 0.0 -35.1309 -35.1309
9.95 162.953 0.0 -33.5912 -33.5912
9.96 142.112 0.0 -32.3349 -32.3349
9.97 117.897 0.0 -31.3192 -31.3192
9.98 90.5108 0.0 -30.4828 -30.4828
9.99 60.1997 0.0 -29.7627 -29.7627
10 27.2648 0.0 -29.0838 -29.0838
10.01 -7.93049 0.0 -28.3785 -28.3785
10.02 -44.9546 0.0 -27.5924 -27.5924
10.03 -83.3039 0.0 -26.6831 -26.6831
10.04 -122.404 0.0 -25.6442 -25.6442
10.05 -161.614 0.0 -24.482 -24.482
10.06 -200.239 0.0 -23.2291 -23.2291
10.07 -237.543 0.0 -21.9374 -21.9374
10.08 -272.769 0.0 -20.682 -20.682
10.09 -305.165 0.0 -19.5358 -19.5358
10.1 -334.007 0.0 -18.5739 -18.5739
10.11 -358.626 0.0 -17.8625 -17.8625
10.12 -378.438 0.0 -17.4535 -17.4535
10.13 -392.961 0.0 -17.3727 -17.3727
10.14 -401.846 0.0 -17.6185 -17.6185
10.15 -404.886 0.0 -18.1603 -18.1603
10.16 -402.025 0.0 -18.944 -18.944
10.17 -393.368 0.0 -19.8874 -19.8874
10.18 -379.17 0.0 -20.8953 -20.8953
10.19 -359.83 0.0 -21.8618 -21.8618
10.2 -335.874 0.0 -22.6774 -22.6774
10.21 -307.928 0.0 -23.2443 -23.2443
10.22 -276.697 0.0 -23.4769 -23.4769
10.23 -242.934 0.0 -23.3136 -23.3136
10.24 -207.411 0.0 -22.7091 -22.7091
10.25 -170.887 0.0 -21.6508 -21.6508
10.26 -134.088 0.0 -20.1474 -20.1474
10.27 -97.678 0.0 -18.228 -18.228
10.28 -62.2487 0.0 -15.9393 -15.9393
10.29 -28.3032 0.0 -13.3298 -13.3298
10.3 3.74695 0.0 -10.458 -10.458
10.31 33.5813 0.0 -7.37934 -7.37934
10.32 60.965 0.0 -4.14502 -4.14502
10.33 85.7384 0.0 -0.784415 -0.784415
10.34 107.805 0.0 2.66945 2.66945
10.35 127.115 0.0 6.19918 6.19918
10.36 143.655 0.0 9.79098 9.79098
10.37 157.433 0.0 13.4412 13.4412
10.38 168.468 0.0 17.1357 17.1357
10.39 176.788 0.0 20.8605 20.8605
10.4 182.421 0.0 24.59 24.59
10.41 185.405 0.0 28.2918 28.2918
10.42 185.789 0.0 31.9184 31.9184
10.43 183.639 0.0 35.4176 35.4176
10.44 179.056 0.0 38.7314 38.7314
10.45 172.175 0.0 41.7982 41.7982
10.46 163.182 0.0 44.5676 44.5676
10.47 152.318 0.0 46.9964 46.9964
10.48 139.875 0.0 49.0617 49.0617
10.49 126.203 0.0 50.7576 50.7576
10.5 111.695 0.0 52.1028 52.1028
10.51 96.7776 0.0 53.1354 53.1354
10.52 81.8943 0.0 53.9147 53.9147
10.53 67.487 0.0 54.512 54.512
10.54 53.9744 0.0 55.0026 55.0026
10.55 41.7324 0.0 55.4606 55.4606
10.56 31.0749 0.0 55.9521 55.9521
10.57 22.2396 0.0 56.5264 56.5264
10.58 15.3776 0.0 57.2054 57.2054
10.59 10.5495 0.0 57.9905 57.9905
10.6 7.72791 0.0 58.8541 58.8541
10.61 6.80575 0.0 59.7482 59.7482
10.62 7.61044 0.0 60.6046 60.6046
10.63 9.92221 0.0 61.3478 61.3478
10.64 13.4953 0.0 61.9047 61.9047
10.65 18.0798 0.0 62.2072 62.2072
10.66 23.4424 0.0 62.2136 62.2136
10.67 29.3844 0.0 61.9056 61.9056
10.68 35.7543 0.0 61.2967 61.2967
10.69 42.4552 0.0 60.4348 60.4348
10.7 49.4454 0.0 59.4006 59.4006
10.71 56.7324 0.0 58.2956 58.2956
10.72 64.3603 0.0 57.2417 57.2417
10.73 72.3937 0.0 56.3613 56.3613
10.74 80.8964 0.0 55.7726 55.7726
10.75 89.9105 0.0 55.5705 55.5705
10.76 99.435 0.0 55.821 55.821
10.77 109.408 0.0 56.5512 56.5512
10.78 119.693 0.0 57.7384 57.7384
10.79 130.072 0.0 59.3263 59.3263
10.8 140.246 0.0 61.2093 61.2093
10.81 149.841 0.0 63.257 63.257
10.82 158.425 0.0 65.3111 65.3111
10.83 165.526 0.0 67.2181 67.2181
10.84 170.66 0.0 68.8253 68.8253
10.85 173.358 0.0 70.0082 70.0082
10.86 173.197 0.0 70.6761 70.6761
10.87 169.827 0.0 70.7837 70.7837
10.88 162.997 0.0 70.3356 70.3356
10.89 152.574 0.0 69.3893 69.3893
10.9 138.554 0.0 68.0454 68.0454
10.91 121.071 0.0 66.4386 66.4386
10.92 100.397 0.0 64.7301 64.7301
10.93 76.9261 0.0 63.0909 63.0909
10.94 51.1662 0.0 61.6818 61.6818
10.95 23.7156 0.0 60.6364 60.6364
10.96 -4.76023 0.0 60.0602 60.0602
10.97 -33.5539 0.0 60.0079 60.0079
10.98 -61.9417 0.0 60.4877 60.4877
10.99 -89.2071 0.0 61.4471 61.4471
11 -114.662 0.0 62.7942 62.7942
11.01 -137.665 0.0 64.3968 64.3968
11.02 -157.631 0.0 66.0934 66.0934
11.03 -174.046 0.0 67.7161 67.7161
11.04 -186.466 0.0 69.0917 69.0917
11.05 -194.521 0.0 70.0741 70.0741
11.06 -197.917 0.0 70.5452 70.5452
11.07 -196.431 0.0 70.4253 70.4253
11.08 -189.911 0.0 69.6864 69.6864
11.09 -178.275 0.0 68.3443 68.3443
11.1 -161.511 0.0 66.4643 66.4643
11.11 -139.681 0.0 64.1459 64.1459
11.12 -112.922 0.0 61.5275 61.5275
11.13 -81.4578 0.0 58.7548 58.7548
11.14 -45.598 0.0 55.982 55.982
11.15 -5.75024 0.0 53.3562 53.3562
11.16 37.5774 0.0 51.0126 51.0126
11.17 83.7735 0.0 49.0515 49.0515
11.18 132.124 0.0 47.5462 47.5462
11.19 181.818 0.0 46.5294 46.5294
11.2 231.958 0.0 46.0174 46.0174
11.21 281.576 0.0 45.9796 45.9796
11.22 329.658 0.0 46.3711 46.3711
11.23 375.163 0.0 47.1236 47.1236
11.24 417.061 0.0 48.1739 48.1739
11.25 454.359 0.0 49.4441 49.4441
11.26 486.137 0.0 50.8649 50.8649
11.27 511.581 0.0 52.3746 52.3746
11.28 530.012 0.0 53.9227 53.9227
11.29 540.911 0.0 55.4755 55.4755
11.3 543.942 0.0 57.0032 57.0032
11.31 538.962 0.0 58.4865 58.4865
11.32 526.031 0.0 59.9124 59.9124
11.33 505.41 0.0 61.2635 61.2635
11.34 477.551 0.0 62.5246 62.5246
11.35 443.086 0.0 63.675 63.675
11.36 402.799 0.0 64.6932 64.6932
11.37 357.605 0.0 65.5394 65.5394
11.38 308.518 0.0 66.1783 66.1783
11.39 256.62 0.0 66.574 66.574
11.4 203.028 0.0 66.6915 66.6915
11.41 148.863 0.0 66.4909 66.4909
11.42 95.2164 0.0 65.9516 65.9516
11.43 43.1257 0.0 65.0603 65.0603
11.44 -6.45139 0.0 63.8204 63.8204
11.45 -52.6579 0.0 62.2379 62.2379
11.46 -94.7545 0.0 60.3415 60.3415
11.47 -132.133 0.0 58.1725 58.1725
11.48 -164.324 0.0 55.7807 55.7807
11.49 -191.005 0.0 53.2143 53.2143
11.5 -212.003 0.0 50.5361 50.5361
11.51 -227.29 0.0 47.8039 47.8039
11.52 -236.982 0.0 45.0769 45.0769
11.53 -241.331 0.0 42.4083 42.4083
11.54 -240.716 0.0 39.8435 39.8435
11.55 -235.629 0.0 37.4295 37.4295
11.56 -226.656 0.0 35.2007 35.2007
11.57 -214.465 0.0 33.1906 33.1906
11.58 -199.779 0.0 31.4285 31.4285
11.59 -183.355 0.0 29.939 29.939
11.6 -165.961 0.0 28.7428 28.7428
11.61 -148.347 0.0 27.8543 27.8543
11.62 -131.226 0.0 27.2897 27.2897
11.63 -115.245 0.0 27.053 27.053
11.64 -100.972 0.0 27.1426 27.1426
11.65 -88.8741 0.0 27.5441 27.5441
11.66 -79.3128 0.0 28.2388 28.2388
11.67 -72.5341 0.0 29.1921 29.1921
11.68 -68.6727 0.0 30.3587 30.3587
11.69 -67.7581 0.0 31.6871 31.6871
11.7 -69.7278 0.0 33.1158 33.1158
11.71 -74.4443 0.0 34.5833 34.5833
11.72 -81.716 0.0 36.028 36.028
11.73 -91.3185 0.0 37.3985 37.3985
11.74 -103.016 0.0 38.6482 38.6482
11.75 -116.582 0.0 39.7516 39.7516
11.76 -131.809 0.0 40.6984 40.6984
11.77 -148.526 0.0 41.4961 41.4961
11.78 -166.592 0.0 42.1744 42.1744
11.79 -185.899 0.0 42.7686 42.7686
11.8 -206.353 0.0 43.3312 43.3312
11.81 -227.866 0.0 43.9156 43.9156
11.82 -250.325 0.0 44.5727 44.5727
11.83 -273.575 0.0 45.3371 45.3371
11.84 -297.394 0.0 46.2308 46.2308
11.85 -321.469 0.0 47.2513 47.2513
11.86 -345.387 0.0 48.3717 48.3717
11.87 -368.62 0.0 49.5363 49.5363
11.88 -390.535 0.0 50.6672 50.6672
11.89 -410.399 0.0 51.6704 51.6704
11.9 -427.407 0.0 52.4432 52.4432
11.91 -440.711 0.0 52.88 52.88
11.92 -449.462 0.0 52.885 52.885
11.93 -452.857 0.0 52.3888 52.3888
11.94 -450.186 0.0 51.3512 51.3512
11.95 -440.883 0.0 49.7683 49.7683
11.96 -424.567 0.0 47.6795 47.6795
11.97 -401.081 0.0 45.1678 45.1678
11.98 -370.513 0.0 42.3524 42.3524
11.99 -333.217 0.0 39.3935 39.3935
12 -289.801 0.0 36.463 36.463
12.01 -241.121 0.0 33.7472 33.7472
12.02 -188.245 0.0 31.4272 31.4272
12.03 -132.413 0.0 29.6576 29.6576
12.04 -74.9828 0.0 28.5808 28.5808
12.05 -17.3764 0.0 28.2764 28.2764
12.06 38.9861 0.0 28.7839 28.7839
12.07 92.7445 0.0 30.0835 30.0835
12.08 142.655 0.0 32.1187 32.1187
12.09 187.64 0.0 34.7713 34.7713
12.1 226.822 0.0 37.8918 37.8918
12.11 259.556 0.0 41.3025 41.3025
12.12 285.439 0.0 44.8247 44.8247
12.13 304.311 0.0 48.271 48.271
12.14 316.244 0.0 51.4765 51.4765
12.15 321.524 0.0 54.3038 54.3038
12.16 320.616 0.0 56.6525 56.6525
12.17 314.135 0.0 58.4632 58.4632
12.18 302.802 0.0 59.7221 59.7221
12.19 287.412 0.0 60.4553 60.4553
12.2 268.793 0.0 60.7205 60.7205
12.21 247.774 0.0 60.6015 60.6015
12.22 225.161 0.0 60.2 60.2
12.23 201.706 0.0 59.6195 59.6195
12.24 178.099 0.0 58.954 58.954
12.25 154.949 0.0 58.2816 58.2816
12.26 132.784 0.0 57.6542 57.6542
12.27 112.041 0.0 57.0998 57.0998
12.28 93.0735 0.0 56.6175 56.6175
12.29 76.1476 0.0 56.1714 56.1714
12.3 61.4486 0.0 55.7114 55.7114
12.31 49.0842 0.0 55.1698 55.1698
12.32 39.0884 0.0 54.4756 54.4756
12.33 31.4268 0.0 53.5532 53.5532
12.34 26.0009 0.0 52.3441 52.3441
12.35 22.6537 0.0 50.8043 50.8043
12.36 21.1757 0.0 48.9143 48.9143
12.37 21.3122 0.0 46.6788 46.6788
12.38 22.7718 0.0 44.1312 44.1312
12.39 25.236 0.0 41.325 41.325
12.4 28.3696 0.0 38.3374 38.3374
12.41 31.8327 0.0 35.2563 35.2563
12.42 35.2914 0.0 32.1786 32.1786
12.43 38.4299 0.0 29.1971 29.1971
12.44 40.9598 0.0 26.4022 26.4022
12.45 42.6286 0.0 23.8694 23.8694
12.46 43.2263 0.0 21.6527 21.6527
12.47 42.5885 0.0 19.7895 19.7895
12.48 40.5978 0.0 18.2932 18.2932
12.49 37.1824 0.0 17.1546 17.1546
12.5 32.3126 0.0 16.3454 16.3454
12.51 25.9955 0.0 15.8205 15.8205
12.52 18.2694 0.0 15.5196 15.5196
12.53 9.19741 0.0 15.3776 15.3776
12.54 -1.13776 0.0 15.3218 15.3218
12.55 -12.6385 0.0 15.2845 15.2845
12.56 -25.1949 0.0 15.1959 15.1959
12.57 -38.6858 0.0 15.0018 15.0018
12.58 -52.978 0.0 14.649 14.649
12.59 -67.924 0.0 14.102 14.102
12.6 -83.3588 0.0 13.3378 13.3378
12.61 -99.0955 0.0 12.3455 12.3455
12.62 -114.922 0.0 11.1235 11.1235
12.63 -130.6 0.0 9.68828 9.68828
12.64 -145.861 0.0 8.06277 8.06277
12.65 -160.408 0.0 6.28399 6.28399
12.66 -173.922 0.0 4.38858 4.38858
12.67 -186.063 0.0 2.42371 2.42371
12.68 -196.482 0.0 0.435316 0.435316
12.69 -204.831 0.0 -1.52955 -1.52955
12.7 -210.773 0.0 -3.4357 -3.4357
12.71 -213.996 0.0 -5.2478 -5.2478
12.72 -214.227 0.0 -6.94494 -6.94494
12.73 -211.245 0.0 -8.52047 -8.52047
12.74 -204.891 0.0 -9.97982 -9.97982
12.75 -195.084 0.0 -11.3457 -11.3457
12.76 -181.825 0.0 -12.6521 -12.6521
12.77 -165.204 0.0 -13.9462 -13.9462
12.78 -145.406 0.0 -15.282 -15.282
12.79 -122.712 0.0 -16.7163 -16.7163
12.8 -97.4945 0.0 -18.3015 -18.3015
12.81 -70.2167 0.0 -20.0863 -20.0863
12.82 -41.4216 0.0 -22.1034 -22.1034
12.83 -11.7226 0.0 -24.3594 -24.3594
12.84 18.2099 0.0 -26.8469 -26.8469
12.85 47.6657 0.0 -29.5277 -29.5277
12.86 75.9135 0.0 -32.3435 -32.3435
12.87 102.222 0.0 -35.2079 -35.2079
12.88 125.883 0.0 -38.0196 -38.0196
12.89 146.234 0.0 -40.6702 -40.6702
12.9 162.686 0.0 -43.0469 -43.0469
12.91 174.741 0.0 -45.0408 -45.0408
12.92 182.017 0.0 -46.5667 -46.5667
12.93 184.264 0.0 -47.563 -47.563
12.94 181.379 0.0 -47.9988 -47.9988
12.95 173.411 0.0 -47.8859 -47.8859
12.96 160.566 0.0 -47.2732 -47.2732
12.97 143.201 0.0 -46.2492 -46.2492
12.98 121.813 0.0 -44.9346 -44.9346
12.99 97.0191 0.0 -43.4821 -43.4821
13 69.5389 0.0 -42.0559 -42.0559
13.01 40.1623 0.0 -40.8263 -40.8263
13.02 9.72211 0.0 -39.9551 -39.9551
13.03 -20.9378 0.0 -39.5792 -39.5792
13.04 -50.9922 0.0 -39.8158 -39.8158
13.05 -79.6627 0.0 -40.7313 -40.7313
13.06 -106.241 0.0 -42.3509 -42.3509
13.07 -130.109 0.0 -44.6482 -44.6482
13.08 -150.75 0.0 -47.5603 -47.5603
13.09 -167.757 0.0 -50.9768 -50.9768
13.1 -180.837 0.0 -54.7574 -54.7574
13.11 -189.801 0.0 -58.7415 -58.7415
13.12 -194.567 0.0 -62.7656 -62.7656
13.13 -195.143 0.0 -66.6663 -66.6663
13.14 -191.619 0.0 -70.2991 -70.2991
13.15 -184.161 0.0 -73.5471 -73.5471
13.16 -172.999 0.0 -76.3287 -76.3287
13.17 -158.425 0.0 -78.6025 -78.6025
13.18 -140.783 0.0 -80.366 -80.366
13.19 -120.476 0.0 -81.658 -81.658
13.2 -97.9593 0.0 -82.5397 -82.5397
13.21 -73.7432 0.0 -83.1048 -83.1048
13.22 -48.3914 0.0 -83.4556 -83.4556
13.23 -22.517 0.0 -83.7 -83.7
13.24 3.2242 0.0 -83.9282 -83.9282
13.25 28.1467 0.0 -84.2207 -84.2207
13.26 51.5521 0.0 -84.6321 -84.6321
13.27 72.7519 0.0 -85.1849 -85.1849
13.28 91.0939 0.0 -85.8739 -85.8739
13.29 105.992 0.0 -86.6603 -86.6603
13.3 116.958 0.0 -87.4853 -87.4853
13.31 123.63 0.0 -88.2709 -88.2709
13.32 125.798 0.0 -88.9292 -88.9292
13.33 123.427 0.0 -89.3742 -89.3742
13.34 116.667 0.0 -89.529 -89.529
13.35 105.856 0.0 -89.3357 -89.3357
13.36 91.5126 0.0 -88.7586 -88.7586
13.37 74.3198 0.0 -87.7968 -87.7968
13.38 55.0948 0.0 -86.4768 -86.4768
13.39 34.7549 0.0 -84.8559 -84.8559
13.4 14.2751 0.0 -83.0181 -83.0181
13.41 -5.35619 0.0 -81.0718 -81.0718
13.42 -23.1828 0.0 -79.1332 -79.1332
13.43 -38.3229 0.0 -77.3261 -77.3261
13.44 -50.0062 0.0 -75.7658 -75.7658
13.45 -57.6042 0.0 -74.5578 -74.5578
13.46 -60.6503 0.0 -73.7827 -73.7827
13.47 -58.8512 0.0 -73.4918 -73.4918
13.48 -52.0891 0.0 -73.7049 -73.7049
13.49 -40.4137 0.0 -74.4033 -74.4033
13.5 -24.0292 0.0 -75.5378 -75.5378
13.51 -3.27424 0.0 -77.0258 -77.0258
13.52 21.4003 0.0 -78.7563 -78.7563
13.53 49.4543 0.0 -80.6043 -80.6043
13.54 80.2809 0.0 -82.4189 -82.4189
13.55 113.226 0.0 -84.0605 -84.0605
13.56 147.607 0.0 -85.3859 -85.3859
13.57 182.721 0.0 -86.2732 -86.2732
13.58 217.861 0.0 -86.6061 -86.6061
13.59 252.319 0.0 -86.3101 -86.3101
13.6 285.395 0.0 -85.3327 -85.3327
13.61 316.402 0.0 -83.6599 -83.6599
13.62 344.678 0.0 -81.3006 -81.3006
13.63 369.593 0.0 -78.302 -78.302
13.64 390.568 0.0 -74.7378 -74.7378
13.65 407.088 0.0 -70.7044 -70.7044
13.66 418.728 0.0 -66.308 -66.308
13.67 425.168 0.0 -61.673 -61.673
13.68 426.22 0.0 -56.9188 -56.9188
13.69 421.843 0.0 -52.1659 -52.1659
13.7 412.159 0.0 -47.5264 -47.5264
13.71 397.461 0.0 -43.0921 -43.0921
13.72 378.209 0.0 -38.9418 -38.9418
13.73 355.022 0.0 -35.1317 -35.1317
13.74 328.657 0.0 -31.7054 -31.7054
13.75 299.983 0.0 -28.6767 -28.6767
13.76 269.936 0.0 -26.0532 -26.0532
13.77 239.486 0.0 -23.8249 -23.8249
13.78 209.583 0.0 -21.966 -21.966
13.79 181.116 0.0 -20.4604 -20.4604
13.8 154.87 0.0 -19.2767 -19.2767
13.81 131.485 0.0 -18.389 -18.389
13.82 111.435 0.0 -17.774 -17.774
13.83 95.0051 0.0 -17.4171 -17.4171
13.84 82.2875 0.0 -17.3005 -17.3005
13.85 73.1861 0.0 -17.4141 -17.4141
13.86 67.4324 0.0 -17.7484 -17.7484
13.87 64.6096 0.0 -18.2916 -18.2916
13.88 64.1844 0.0 -19.0294 -19.0294
13.89 65.5411 0.0 -19.9371 -19.9371
13.9 68.019 0.0 -20.986 -20.986
13.91 70.9462 0.0 -22.1332 -22.1332
13.92 73.6712 0.0 -23.3312 -23.3312
13.93 75.5882 0.0 -24.5202 -24.5202
13.94 76.1568 0.0 -25.6358 -25.6358
13.95 74.9142 0.0 -26.6152 -26.6152
13.96 71.4816 0.0 -27.3956 -27.3956
13.97 65.5654 0.0 -27.9204 -27.9204
13.98 56.9546 0.0 -28.1486 -28.1486
13.99 45.5157 0.0 -28.0547 -28.0547
14 31.1874 0.0 -27.6314 -27.6314
14.01 13.9759 0.0 -26.8929 -26.8929
14.02 -6.04823 0.0 -25.8718 -25.8718
14.03 -28.7502 0.0 -24.6188 -24.6188
14.04 -53.9297 0.0 -23.2063 -23.2063
14.05 -81.3179 0.0 -21.7051 -21.7051
14.06 -110.574 0.0 -20.1982 -20.1982
14.07 -141.281 0.0 -18.7589 -18.7589
14.08 -172.948 0.0 -17.4618 -17.4618
14.09 -205.011 0.0 -16.3602 -16.3602
14.1 -236.84 0.0 -15.4952 -15.4952
14.11 -267.754 0.0 -14.8845 -14.8845
14.12 -297.041 0.0 -14.5365 -14.5365
14.13 -323.973 0.0 -14.4349 -14.4349
14.14 -347.844 0.0 -14.5542 -14.5542
14.15 -367.989 0.0 -14.8597 -14.8597
14.16 -383.82 0.0 -15.319 -15.319
14.17 -394.848 0.0 -15.8975 -15.8975
14.18 -400.708 0.0 -16.5695 -16.5695
14.19 -401.177 0.0 -17.3207 -17.3207
14.2 -396.186 0.0 -18.15 -18.15
14.21 -385.818 0.0 -19.0679 -19.0679
14.22 -370.308 0.0 -20.0921 -20.0921
14.23 -350.028 0.0 -21.2499 -21.2499
14.24 -325.471 0.0 -22.5605 -22.5605
14.25 -297.228 0.0 -24.0407 -24.0407
14.26 -265.961 0.0 -25.6939 -25.6939
14.27 -232.379 0.0 -27.5005 -27.5005
14.28 -197.21 0.0 -29.4228 -29.4228
14.29 -161.184 0.0 -31.3926 -31.3926
14.3 -125.009 0.0 -33.3203 -33.3203
14.31 -89.3551 0.0 -35.1009 -35.1009
14.32 -54.8495 0.0 -36.6185 -36.6185
14.33 -22.0645 0.0 -37.7435 -37.7435
14.34 8.48451 0.0 -38.3635 -38.3635
14.35 36.3414 0.0 -38.3814 -38.3814
14.36 61.1108 0.0 -37.7328 -37.7328
14.37 82.46 0.0 -36.381 -36.381
14.38 100.121 0.0 -34.3383 -34.3383
14.39 113.897 0.0 -31.6635 -31.6635
14.4 123.663 0.0 -28.4589 -28.4589
14.41 129.38 0.0 -24.8636 -24.8636
14.42 131.095 0.0 -21.0501 -21.0501
14.43 128.953 0.0 -17.2087 -17.2087
14.44 123.195 0.0 -13.534 -13.534
14.45 114.164 0.0 -10.2136 -10.2136
14.46 102.295 0.0 -7.41201 -7.41201
14.47 88.1106 0.0 -5.25758 -5.25758
14.48 72.2011 0.0 -3.83509 -3.83509
14.49 55.2058 0.0 -3.18179 -3.18179
14.5 37.7869 0.0 -3.28286 -3.28286
14.51 20.6006 0.0 -4.07564 -4.07564
14.52 4.26741 0.0 -5.45841 -5.45841
14.53 -10.6583 0.0 -7.2987 -7.2987
14.54 -23.7147 0.0 -9.4503 -9.4503
14.55 -34.5551 0.0 -11.7589 -11.7589
14.56 -42.9638 0.0 -14.0832 -14.0832
14.57 -48.8647 0.0 -16.3013 -16.3013
14.58 -52.3211 0.0 -18.3249 -18.3249
14.59 -53.5284 0.0 -20.0966 -20.0966
14.6 -52.7978 0.0 -21.6022 -21.6022
14.61 -50.5349 0.0 -22.8571 -22.8571
14.62 -47.2132 0.0 -23.9078 -23.9078
14.63 -43.3445 0.0 -24.8205 -24.8205
14.64 -39.4497 0.0 -25.6683 -25.6683
14.65 -36.0299 0.0 -26.5211 -26.5211
14.66 -33.5416 0.0 -27.4364 -27.4364
14.67 -32.3757 0.0 -28.4483 -28.4483
14.68 -32.8429 0.0 -29.5611 -29.5611
14.69 -35.1636 0.0 -30.7474 -30.7474
14.7 -39.4649 0.0 -31.9531 -31.9531
14.71 -45.7813 0.0 -33.0967 -33.0967
14.72 -54.0605 0.0 -34.0795 -34.0795
14.73 -64.1717 0.0 -34.7963 -34.7963
14.74 -75.9154 0.0 -35.1536 -35.1536
14.75 -89.0346 0.0 -35.0684 -35.0684
14.76 -103.225 0.0 -34.4903 -34.4903
14.77 -118.143 0.0 -33.404 -33.404
14.78 -133.417 0.0 -31.8309 -31.8309
14.79 -148.652 0.0 -29.8425 -29.8425
14.8 -163.434 0.0 -27.5419 -27.5419
14.81 -177.342 0.0 -25.0644 -25.0644
14.82 -189.946 0.0 -22.5679 -22.5679
14.83 -200.822 0.0 -20.2189 -20.2189
14.84 -209.556 0.0 -18.1755 -18.1755
14.85 -215.754 0.0 -16.5798 -16.5798
14.86 -219.061 0.0 -15.5382 -15.5382
14.87 -219.167 0.0 -15.1223 -15.1223
14.88 -215.827 0.0 -15.3528 -15.3528
14.89 -208.877 0.0 -16.2002 -16.2002
14.9 -198.243 0.0 -17.5923 -17.5923
14.91 -183.957 0.0 -19.4053 -19.4053
14.92 -166.163 0.0 -21.4922 -21.4922
14.93 -145.121 0.0 -23.6791 -23.6791
14.94 -121.205 0.0 -25.7873 -25.7873
14.95 -94.8937 0.0 -27.6343 -27.6343
14.96 -66.7599 0.0 -29.0651 -29.0651
14.97 -37.4488 0.0 -29.9462 -29.9462
14.98 -7.65608 0.0 -30.1879 -30.1879
14.99 21.8987 0.0 -29.7317 -29.7317
15 50.5008 0.0 -28.5708 -28.5708
15.01 77.4688 0.0 -26.7378 -26.7378
15.02 102.181 0.0 -24.3071 -24.3071
15.03 124.101 0.0 -21.3836 -21.3836
15.04 142.794 0.0 -18.0881 -18.0881
15.05 157.946 0.0 -14.5651 -14.5651
15.06 169.368 0.0 -10.9576 -10.9576
15.07 176.997 0.0 -7.40939 -7.40939
15.08 180.898 0.0 -4.04197 -4.04197
15.09 181.245 0.0 -0.96831 -0.96831
15.1 178.314 0.0 1.72501 1.72501
15.11 172.459 0.0 3.98442 3.98442
15.12 164.092 0.0 5.77355 5.77355
15.13 153.666 0.0 7.0865 7.0865
15.14 141.642 0.0 7.944 7.944
15.15 128.48 0.0 8.38625 8.38625
15.16 114.612 0.0 8.46728 8.46728
15.17 100.431 0.0 8.25818 8.25818
15.18 86.2785 0.0 7.83649 7.83649
15.19 72.4374 0.0 7.28664 7.28664
15.2 59.1278 0.0 6.68617 6.68617
15.21 46.5088 0.0 6.11124 6.11124
15.22 34.6813 0.0 5.62671 5.62671
15.23 23.6955 0.0 5.28954 5.28954
15.24 13.5587 0.0 5.13327 5.13327
15.25 4.24571 0.0 5.17829 5.17829
15.26 -4.29206 0.0 5.42406 5.42406
15.27 -12.1168 0.0 5.85276 5.85276
15.28 -19.2962 0.0 6.42424 6.42424
15.29 -25.8978 0.0 7.08485 7.08485
15.3 -31.9842 0.0 7.76821 7.76821
15.31 -37.6114 0.0 8.3984 8.3984
15.32 -42.8291 0.0 8.90007 8.90007
15.33 -47.6822 0.0 9.20224 9.20224
15.34 -52.2143 0.0 9.24229 9.24229
15.35 -56.4702 0.0 8.97917 8.97917
15.36 -60.4993 0.0 8.39126 8.39126
15.37 -64.3569 0.0 7.4839 7.4839
15.38 -68.104 0.0 6.29401 6.29401
15.39 -71.8041 0.0 4.87914 4.87914
15.4 -75.5179 0.0 3.32786 3.32786
15.41 -79.2944 0.0 1.74242 1.74242
15.42 -83.1612 0.0 0.236225 0.236225
15.43 -87.112 0.0 -1.07104 -1.07104
15.44 -91.0944 0.0 -2.07261 -2.07261
15.45 -94.9993 0.0 -2.67968 -2.67968
15.46 -98.6522 0.0 -2.82877 -2.82877
15.47 -101.809 0.0 -2.48993 -2.48993
15.48 -104.157 0.0 -1.67556 -1.67556
15.49 -105.324 0.0 -0.433568 -0.433568
15.5 -104.891 0.0 1.15033 1.15033
15.51 -102.415 0.0 2.9563 2.9563
15.52 -97.4573 0.0 4.84629 4.84629
15.53 -89.6146 0.0 6.66463 6.66463
15.54 -78.5565 0.0 8.26646 8.26646
15.55 -64.0593 0.0 9.51632 9.51632
15.56 -46.04 0.0 10.307 10.307
15.57 -24.583 0.0 10.565 10.565
15.58 0.0409862 0.0 10.271 10.271
15.59 27.3665 0.0 9.4465 9.4465
15.6 56.7382 0.0 8.16277 8.16277
15.61 87.3287 0.0 6.53228 6.53228
15.62 118.169 0.0 4.70859 4.70859
15.63 148.194 0.0 2.86029 2.86029
15.64 176.29 0.0 1.1683 1.1683
15.65 201.359 0.0 -0.197364 -0.197364
15.66 222.38 0.0 -1.0774 -1.0774
15.67 238.466 0.0 -1.35541 -1.35541
15.68 248.921 0.0 -0.959047 -0.959047
15.69 253.282 0.0 0.138997 0.138997
15.7 251.352 0.0 1.90946 1.90946
15.71 243.211 0.0 4.2731 4.2731
15.72 229.217 0.0 7.10967 7.10967
15.73 209.984 0.0 10.2623 10.2623
15.74 186.342 0.0 13.5468 13.5468
15.75 159.294 0.0 16.7803 16.7803
15.76 129.948 0.0 19.7817 19.7817
15.77 99.4593 0.0 22.3867 22.3867
15.78 68.9567 0.0 24.4673 24.4673
15.79 39.4845 0.0 25.9255 25.9255
15.8 11.9461 0.0 26.7139 26.7139
15.81 -12.9376 0.0 26.8256 26.8256
15.82 -34.657 0.0 26.3 26.3
15.83 -52.925 0.0 25.202 25.202
15.84 -67.6736 0.0 23.6356 23.6356
15.85 -79.0348 0.0 21.7148 21.7148
15.86 -87.3095 0.0 19.5665 19.5665
15.87 -92.9273 0.0 17.3113 17.3113
15.88 -96.4008 0.0 15.0618 15.0618
15.89 -98.2786 0.0 12.9126 12.9126
15.9 -99.1008 0.0 10.9368 10.9368
15.91 -99.3609 0.0 9.18688 9.18688
15.92 -99.4757 0.0 7.69067 7.69067
15.93 -99.7661 0.0 6.46107 6.46107
15.94 -100.448 0.0 5.49313 5.49313
15.95 -101.635 0.0 4.77367 4.77367
15.96 -103.346 0.0 4.28762 4.28762
15.97 -105.525 0.0 4.02001 4.02001
15.98 -108.062 0.0 3.95887 3.95887
15.99 -110.812 0.0 4.10122 4.10122
16 -113.619 0.0 4.45242 4.45242
16.01 -116.331 0.0 5.02058 5.02058
16.02 -118.807 0.0 5.82036 5.82036
16.03 -120.93 0.0 6.86547 6.86547
16.04 -122.598 0.0 8.16466 8.16466
16.05 -123.716 0.0 9.72124 9.72124
16.06 -124.192 0.0 11.5247 11.5247
16.07 -123.914 0.0 13.5533 13.5533
16.08 -122.746 0.0 15.771 15.771
16.09 -120.511 0.0 18.1266 18.1266
16.1 -116.988 0.0 20.561 20.561
16.11 -111.915 0.0 23.0058 23.0058
16.12 -104.992 0.0 25.3915 25.3915
16.13 -95.9021 0.0 27.6501 27.6501
16.14 -84.3257 0.0 29.7267 29.7267
16.15 -69.9718 0.0 31.5748 31.5748
16.16 -52.6048 0.0 33.1698 33.1698
16.17 -32.073 0.0 34.503 34.503
16.18 -8.33514 0.0 35.5911 35.5911
16.19 18.5182 0.0 36.4698 36.4698
16.2 48.2512 0.0 37.1918 37.1918
16.21 80.4773 0.0 37.8197 37.8197
16.22 114.665 0.0 38.4424 38.4424
16.23 150.15 0.0 39.1349 39.1349
16.24 186.164 0.0 39.9762 39.9762
16.25 221.86 0.0 41.0375 41.0375
16.26 256.357 0.0 42.3731 42.3731
16.27 288.773 0.0 44.0212 44.0212
16.28 318.272 0.0 46.0013 46.0013
16.29 344.1 0.0 48.3061 48.3061
16.3 365.621 0.0 50.9087 50.9087
16.31 382.345 0.0 53.7672 53.7672
16.32 393.944 0.0 56.8137 56.8137
16.33 400.269 0.0 59.9696 59.9696
16.34 401.347 0.0 63.1471 63.1471
16.35 397.374 0.0 66.2559 66.2559
16.36 388.704 0.0 69.207 69.207
16.37 375.824 0.0 71.9191 71.9191
16.38 359.33 0.0 74.3242 74.3242
16.39 339.898 0.0 76.3644 76.3644
16.4 318.253 0.0 78.0042 78.0042
16.41 295.141 0.0 79.2271 79.2271
16.42 271.299 0.0 80.0399 80.0399
16.43 247.431 0.0 80.4663 80.4663
16.44 224.183 0.0 80.5463 80.5463
16.45 202.128 0.0 80.3365 80.3365
16.46 181.748 0.0 79.9048 79.9048
16.47 163.427 0.0 79.3176 79.3176
16.48 147.441 0.0 78.6474 78.6474
16.49 133.952 0.0 77.9627 77.9627
16.5 123.016 0.0 77.3222 77.3222
16.51 114.576 0.0 76.7712 76.7712
16.52 108.474 0.0 76.3396 76.3396
16.53 104.46 0.0 76.0385 76.0385
16.54 102.197 0.0 75.8683 75.8683
16.55 101.283 0.0 75.8081 75.8081
16.56 101.264 0.0 75.8264 75.8264
16.57 101.651 0.0 75.8856 75.8856
16.58 101.947 0.0 75.9412 75.9412
16.59 101.66 0.0 75.955 75.955
16.6 100.333 0.0 75.8893 75.8893
16.61 97.5595 0.0 75.7235 75.7235
16.62 93.0078 0.0 75.4482 75.4482
16.63 86.4341 0.0 75.0749 75.0749
16.64 77.6975 0.0 74.6245 74.6245
16.65 66.7681 0.0 74.1399 74.1399
16.66 53.7295 0.0 73.6735 73.6735
16.67 38.7766 0.0 73.2824 73.2824
16.68 22.2069 0.0 73.0291 73.0291
16.69 4.40615 0.0 72.9688 72.9688
16.7 -14.1701 0.0 73.1431 73.1431
16.71 -33.0198 0.0 73.5828 73.5828
16.72 -51.6197 0.0 74.2827 74.2827
16.73 -69.4524 0.0 75.2284 75.2284
16.74 -86.033 0.0 76.375 76.375
16.75 -100.934 0.0 77.6585 77.6585
16.76 -113.809 0.0 78.9952 78.9952
16.77 -124.407 0.0 80.2969 80.2969
16.78 -132.587 0.0 81.4634 81.4634
16.79 -138.327 0.0 82.4108 82.4108
16.8 -141.718 0.0 83.0633 83.0633
16.81 -142.967 0.0 83.3657 83.3657
16.82 -142.377 0.0 83.2946 83.2946
16.83 -140.337 0.0 82.8511 82.8511
16.84 -137.301 0.0 82.0709 82.0709
16.85 -133.762 0.0 81.0138 81.0138
16.86 -130.23 0.0 79.762 79.762
16.87 -127.208 0.0 78.4136 78.4136
16.88 -125.165 0.0 77.0699 77.0699
16.89 -124.519 0.0 75.8277 75.8277
16.9 -125.615 0.0 74.7726 74.7726
16.91 -128.712 0.0 73.9659 73.9659
16.92 -133.975 0.0 73.4416 73.4416
16.93 -141.466 0.0 73.2036 73.2036
16.94 -151.146 0.0 73.2244 73.2244
16.95 -162.881 0.0 73.4515 73.4515
16.96 -176.446 0.0 73.8097 73.8097
16.97 -191.536 0.0 74.2071 74.2071
16.98 -207.785 0.0 74.5531 74.5531
16.99 -224.777 0.0 74.7648 74.7648
17 -242.063 0.0 74.7709 74.7709
17.01 -259.179 0.0 74.5273 74.5273
17.02 -275.662 0.0 74.018 74.018
17.03 -291.062 0.0 73.2557 73.2557
17.04 -304.957 0.0 72.2862 72.2862
17.05 -316.966 0.0 71.1801 71.1801
17.06 -326.755 0.0 70.0167 70.0167
17.07 -334.045 0.0 68.89 68.89
17.08 -338.62 0.0 67.8935 67.8935
17.09 -340.33 0.0 67.102 67.102
17.1 -339.091 0.0 66.5691 66.5691
17.11 -334.891 0.0 66.3217 66.3217
17.12 -327.787 0.0 66.3506 66.3506
17.13 -317.906 0.0 66.6138 66.6138
17.14 -305.443 0.0 67.0444 67.0444
17.15 -290.659 0.0 67.5467 67.5467
17.16 -273.871 0.0 68.0127 68.0127
17.17 -255.45 0.0 68.334 68.334
17.18 -235.81 0.0 68.406 68.406
17.19 -215.394 0.0 68.1462 68.1462
17.2 -194.662 0.0 67.4999 67.4999
17.21 -174.07 0.0 66.4414 66.4414
17.22 -154.057 0.0 64.9935 64.9935
17.23 -135.016 0.0 63.201 63.201
17.24 -117.284 0.0 61.1427 61.1427
17.25 -101.114 0.0 58.9201 58.9201
17.26 -86.6652 0.0 56.6432 56.6432
17.27 -73.9857 0.0 54.4267 54.4267
17.28 -63.0082 0.0 52.3662 52.3662
17.29 -53.5485 0.0 50.5415 50.5415
17.3 -45.3122 0.0 48.9972 48.9972
17.31 -37.9089 0.0 47.7479 47.7479
17.32 -30.8736 0.0 46.7726 46.7726
17.33 -23.6945 0.0 46.0145 46.0145
17.34 -15.8458 0.0 45.3948 45.3948
17.35 -6.82373 0.0 44.8187 44.8187
17.36 3.81677 0.0 44.1862 44.1862
17.37 16.4272 0.0 43.4028 43.4028
17.38 31.2349 0.0 42.3911 42.3911
17.39 48.319 0.0 41.105 41.105
17.4 67.5953 0.0 39.5277 39.5277
17.41 88.8117 0.0 37.6693 37.6693
17.42 111.554 0.0 35.5803 35.5803
17.43 135.262 0.0 33.3335 33.3335
17.44 159.257 0.0 31.0178 31.0178
17.45 182.78 0.0 28.7262 28.7262
17.46 205.027 0.0 26.5472 26.5472
17.47 225.199 0.0 24.559 24.559
17.48 242.545 0.0 22.8026 22.8026
17.49 256.405 0.0 21.2896 21.2896
17.5 266.245 0.0 19.9991 19.9991
17.51 271.685 0.0 18.8705 18.8705
17.52 272.518 0.0 17.8194 17.8194
17.53 268.717 0.0 16.7388 16.7388
17.54 260.432 0.0 15.5177 15.5177
17.55 247.973 0.0 14.0554 14.0554
17.56 231.785 0.0 12.2589 12.2589
17.57 212.423 0.0 10.0769 10.0769
17.58 190.512 0.0 7.49439 7.49439
17.59 166.71 0.0 4.54323 4.54323
17.6 141.675 0.0 1.29964 1.29964
17.61 116.032 0.0 -2.12322 -2.12322
17.62 90.3432 0.0 -5.57922 -5.57922
17.63 65.0902 0.0 -8.90221 -8.90221
17.64 40.6615 0.0 -11.9435 -11.9435
17.65 17.3474 0.0 -14.5524 -14.5524
17.66 -4.65772 0.0 -16.6163 -16.6163
17.67 -25.2462 0.0 -18.0698 -18.0698
17.68 -44.3843 0.0 -18.9027 -18.9027
17.69 -62.0956 0.0 -19.1644 -19.1644
17.7 -78.4432 0.0 -18.9618 -18.9618
17.71 -93.5131 0.0 -18.4519 -18.4519
17.72 -107.398 0.0 -17.8393 -17.8393
17.73 -120.183 0.0 -17.3373 -17.3373
17.74 -131.937 0.0 -17.1728 -17.1728
17.75 -142.706 0.0 -17.5481 -17.5481
17.76 -152.506 0.0 -18.6314 -18.6314
17.77 -161.322 0.0 -20.5396 -20.5396
17.78 -169.112 0.0 -23.3236 -23.3236
17.79 -175.803 0.0 -26.9614 -26.9614
17.8 -181.292 0.0 -31.3617 -31.3617
17.81 -185.456 0.0 -36.3693 -36.3693
17.82 -188.144 0.0 -41.7763 -41.7763
17.83 -189.187 0.0 -47.3382 -47.3382
17.84 -188.399 0.0 -52.7973 -52.7973
17.85 -185.581 0.0 -57.8994 -57.8994
17.86 -180.528 0.0 -62.4176 -62.4176
17.87 -173.041 0.0 -66.173 -66.173
17.88 -162.933 0.0 -69.0442 -69.0442
17.89 -150.047 0.0 -70.973 -70.973
17.9 -134.273 0.0 -71.977 -71.977
17.91 -115.563 0.0 -72.1346 -72.1346
17.92 -93.9524 0.0 -71.5856 -71.5856
17.93 -69.5726 0.0 -70.5094 -70.5094
17.94 -42.6686 0.0 -69.1114 -69.1114
17.95 -13.6055 0.0 -67.6025 -67.6025
17.96 17.1282 0.0 -66.1882 -66.1882
17.97 48.9256 0.0 -65.0196 -65.0196
17.98 81.0755 0.0 -64.2305 -64.2305
17.99 112.784 0.0 -63.8896 -63.8896
18 143.203 0.0 -64.0141 -64.0141
18.01 171.471 0.0 -64.563 -64.563
18.02 196.749 0.0 -65.4552 -65.4552
18.03 218.268 0.0 -66.5653 -66.5653
18.04 235.37 0.0 -67.7512 -67.7512
18.05 247.547 0.0 -68.8651 -68.8651
18.06 254.474 0.0 -69.7657 -69.7657
18.07 256.031 0.0 -70.3388 -70.3388
18.08 252.316 0.0 -70.5035 -70.5035
18.09 243.646 0.0 -70.2218 -70.2218
18.1 230.537 0.0 -69.5018 -69.5018
18.11 213.684 0.0 -68.391 -68.391
18.12 193.921 0.0 -66.9773 -66.9773
18.13 172.175 0.0 -65.3715 -65.3715
18.14 149.414 0.0 -63.7114 -63.7114
18.15 126.592 0.0 -62.128 -62.128
18.16 104.595 0.0 -60.7426 -60.7426
18.17 84.192 0.0 -59.658 -59.658
18.18 65.9955 0.0 -58.9475 -58.9475
18.19 50.4273 0.0 -58.6473 -58.6473
18.2 37.7011 0.0 -58.7541 -58.7541
18.21 27.8164 0.0 -59.2324 -59.2324
18.22 20.5672 0.0 -60.0192 -60.0192
18.23 15.562 0.0 -61.024 -61.024
18.24 12.2559 0.0 -62.1469 -62.1469
18.25 9.99201 0.0 -63.288 -63.288
18.26 8.04864 0.0 -64.3536 -64.3536
18.27 5.68975 0.0 -65.2717 -65.2717
18.28 2.21575 0.0 -65.9928 -65.9928
18.29 -2.98894 0.0 -66.4961 -66.4961
18.3 -10.4141 0.0 -66.7869 -66.7869
18.31 -20.3902 0.0 -66.9028 -66.9028
18.32 -33.0648 0.0 -66.8982 -66.8982
18.33 -48.3899 0.0 -66.8421 -66.8421
18.34 -66.1217 0.0 -66.8053 -66.8053
18.35 -85.8305 0.0 -66.8565 -66.8565
18.36 -106.922 0.0 -67.0507 -67.0507
18.37 -128.669 0.0 -67.4226 -67.4226
18.38 -150.247 0.0 -67.9767 -67.9767
18.39 -170.778 0.0 -68.7058 -68.7058
18.4 -189.376 0.0 -69.5595 -69.5595
18.41 -205.194 0.0 -70.473 -70.473
18.42 -217.464 0.0 -71.362 -71.362
18.43 -225.54 0.0 -72.1379 -72.1379
18.44 -228.929 0.0 -72.7082 -72.7082
18.45 -227.314 0.0 -72.9913 -72.9913
18.46 -220.571 0.0 -72.9248 -72.9248
18.47 -208.776 0.0 -72.4674 -72.4674
18.48 -192.195 0.0 -71.6042 -71.6042
18.49 -171.276 0.0 -70.357 -70.357
18.5 -146.623 0.0 -68.7677 -68.7677
18.51 -118.968 0.0 -66.9081 -66.9081
18.52 -89.1335 0.0 -64.8675 -64.8675
18.53 -57.9975 0.0 -62.7435 -62.7435
18.54 -26.4519 0.0 -60.6351 -60.6351
18.55 4.63477 0.0 -58.6378 -58.6378
18.56 34.4532 0.0 -56.8152 -56.8152
18.57 62.2833 0.0 -55.2233 -55.2233
18.58 87.5183 0.0 -53.8853 -53.8853
18.59 109.682 0.0 -52.7917 -52.7917
18.6 128.437 0.0 -51.9088 -51.9088
18.61 143.588 0.0 -51.1735 -51.1735
18.62 155.078 0.0 -50.504 -50.504
18.63 162.973 0.0 -49.8116 -49.8116
18.64 167.45 0.0 -48.9975 -48.9975
18.65 168.778 0.0 -47.9759 -47.9759
18.66 167.299 0.0 -46.6775 -46.6775
18.67 163.404 0.0 -45.0507 -45.0507
18.68 157.518 0.0 -43.0784 -43.0784
18.69 150.083 0.0 -40.7698 -40.7698
18.7 141.538 0.0 -38.1674 -38.1674
18.71 132.316 0.0 -35.3402 -35.3402
18.72 122.827 0.0 -32.3834 -32.3834
18.73 113.457 0.0 -29.4029 -29.4029
18.74 104.557 0.0 -26.5152 -26.5152
18.75 96.4443 0.0 -23.8343 -23.8343
18.76 89.3928 0.0 -21.4618 -21.4618
18.77 83.6313 0.0 -19.4843 -19.4843
18.78 79.3369 0.0 -17.9629 -17.9629
18.79 76.6295 0.0 -16.9315 -16.9315
18.8 75.5666 0.0 -16.3966 -16.3966
18.81 76.1383 0.0 -16.3353 -16.3353
18.82 78.265 0.0 -16.706 -16.706
18.83 81.7972 0.0 -17.4452 -17.4452
18.84 86.5193 0.0 -18.4773 -18.4773
18.85 92.1585 0.0 -19.7275 -19.7275
18.86 98.3976 0.0 -21.1206 -21.1206
18.87 104.893 0.0 -22.5861 -22.5861
18.88 111.297 0.0 -24.0719 -24.0719
18.89 117.281 0.0 -25.5351 -25.5351
18.9 122.563 0.0 -26.9504 -26.9504
18.91 126.931 0.0 -28.3088 -28.3088
18.92 130.261 0.0 -29.6069 -29.6069
18.93 132.536 0.0 -30.8515 -30.8515
18.94 133.852 0.0 -32.0504 -32.0504
18.95 134.414 0.0 -33.2096 -33.2096
18.96 134.523 0.0 -34.3259 -34.3259
18.97 134.559 0.0 -35.3926 -35.3926
18.98 134.944 0.0 -36.3867 -36.3867
18.99 136.108 0.0 -37.2826 -37.2826
19 138.444 0.0 -38.0443 -38.0443
19.01 142.269 0.0 -38.6371 -38.6371
19.02 147.779 0.0 -39.0269 -39.0269
19.03 155.019 0.0 -39.1867 -39.1867
19.04 163.858 0.0 -39.106 -39.106
19.05 173.981 0.0 -38.7881 -38.7881
19.06 184.891 0.0 -38.2529 -38.2529
19.07 195.928 0.0 -37.5383 -37.5383
19.08 206.307 0.0 -36.7013 -36.7013
19.09 215.161 0.0 -35.8074 -35.8074
19.1 221.601 0.0 -34.9252 -34.9252
19.11 224.777 0.0 -34.1257 -34.1257
19.12 223.941 0.0 -33.4639 -33.4639
19.13 218.51 0.0 -32.9817 -32.9817
19.14 208.112 0.0 -32.6973 -32.6973
19.15 192.629 0.0 -32.604 -32.604
19.16 172.212 0.0 -32.6672 -32.6672
19.17 147.288 0.0 -32.8305 -32.8305
19.18 118.542 0.0 -33.0151 -33.0151
19.19 86.8791 0.0 -33.1361 -33.1361
19.2 53.3756 0.0 -33.1086 -33.1086
19.21 19.2137 0.0 -32.8477 -32.8477
19.22 -14.391 0.0 -32.313 -32.313
19.23 -46.2649 0.0 -31.4731 -31.4731
19.24 -75.3481 0.0 -30.3409 -30.3409
19.25 -100.759 0.0 -28.9697 -28.9697
19.26 -121.847 0.0 -27.4476 -27.4476
19.27 -138.227 0.0 -25.9019 -25.9019
19.28 -149.795 0.0 -24.4787 -24.4787
19.29 -156.729 0.0 -23.3418 -23.3418
19.3 -159.464 0.0 -22.6447 -22.6447
19.31 -158.656 0.0 -22.5274 -22.5274
19.32 -155.126 0.0 -23.0914 -23.0914
19.33 -149.801 0.0 -24.3926 -24.3926
19.34 -143.648 0.0 -26.4298 -26.4298
19.35 -137.601 0.0 -29.1439 -29.1439
19.36 -132.503 0.0 -32.4105 -32.4105
19.37 -129.048 0.0 -36.0591 -36.0591
19.38 -127.744 0.0 -39.8705 -39.8705
19.39 -128.879 0.0 -43.6094 -43.6094
19.4 -132.513 0.0 -47.0286 -47.0286
19.41 -138.483 0.0 -49.9 -49.9
19.42 -146.415 0.0 -52.0287 -52.0287
19.43 -155.763 0.0 -53.2723 -53.2723
19.44 -165.843 0.0 -53.5553 -53.5553
19.45 -175.886 0.0 -52.8767 -52.8767
19.46 -185.09 0.0 -51.3054 -51.3054
19.47 -192.665 0.0 -48.9869 -48.9869
19.48 -197.891 0.0 -46.114 -46.114
19.49 -200.153 0.0 -42.9268 -42.9268
19.5 -198.981 0.0 -39.6778 -39.6778
19.51 -194.073 0.0 -36.6198 -36.6198
19.52 -185.312 0.0 -33.9773 -33.9773
19.53 -172.769 0.0 -31.9294 -31.9294
19.54 -156.7 0.0 -30.5935 -30.5935
19.55 -137.53 0.0 -30.017 -30.017
19.56 -115.832 0.0 -30.1657 -30.1657
19.57 -92.2966 0.0 -30.9414 -30.9414
19.58 -67.697 0.0 -32.183 -32.183
19.59 -42.8541 0.0 -33.6889 -33.6889
19.6 -18.5968 0.0 -35.2292 -35.2292
19.61 4.2758 0.0 -36.5728 -36.5728
19.62 25.0296 0.0 -37.5116 -37.5116
19.63 43.0279 0.0 -37.8789 -37.8789
19.64 57.7574 0.0 -37.5534 -37.5534
19.65 68.8486 0.0 -36.4916 -36.4916
19.66 76.0882 0.0 -34.7122 -34.7122
19.67 79.4242 0.0 -32.3012 -32.3012
19.68 78.9615 0.0 -29.4025 -29.4025
19.69 74.9511 0.0 -26.1981 -26.1981
19.7 67.7699 0.0 -22.8959 -22.8959
19.71 57.8956 0.0 -19.7036 -19.7036
19.72 45.8755 0.0 -16.8135 -16.8135
19.73 32.2926 0.0 -14.3856 -14.3856
19.74 17.7301 0.0 -12.5231 -12.5231
19.75 2.73782 0.0 -11.2768 -11.2768
19.76 -12.1993 0.0 -10.6357 -10.6357
19.77 -26.6863 0.0 -10.5337 -10.5337
19.78 -40.436 0.0 -10.856 -10.856
19.79 -53.2795 0.0 -11.4535 -11.4535
19.8 -65.1655 0.0 -12.1595 -12.1595
19.81 -76.1521 0.0 -12.8129 -12.8129
19.82 -86.3891 0.0 -13.2659 -13.2659
19.83 -96.0925 0.0 -13.4045 -13.4045
19.84 -105.515 0.0 -13.1611 -13.1611
19.85 -114.912 0.0 -12.5152 -12.5152
19.86 -124.509 0.0 -11.5003 -11.5003
19.87 -134.47 0.0 -10.192 -10.192
19.88 -144.874 0.0 -8.70608 -8.70608
19.89 -155.694 0.0 -7.18171 -7.18171
19.9 -166.792 0.0 -5.76661 -5.76661
19.91 -177.918 0.0 -4.60064 -4.60064
19.92 -188.723 0.0 -3.80369 -3.80369
19.93 -198.781 0.0 -3.46204 -3.46204
19.94 -207.617 0.0 -3.61965 -3.61965
19.95 -214.746 0.0 -4.27855 -4.27855
19.96 -219.709 0.0 -5.39126 -5.39126
19.97 -222.11 0.0 -6.87811 -6.87811
19.98 -221.656 0.0 -8.62977 -8.62977
19.99 -218.184 0.0 -10.5118 -10.5118
20 -211.681 0.0 -12.3938 -12.3938
20.01 -202.296 0.0 -14.1497 -14.1497
20.02 -190.339 0.0 -15.6697 -15.6697
20.03 -176.269 0.0 -16.8774 -16.8774
20.04 -160.668 0.0 -17.7254 -17.7254
20.05 -144.213 0.0 -18.2033 -18.2033
20.06 -127.634 0.0 -18.327 -18.327
20.07 -111.671 0.0 -18.1427 -18.1427
20.08 -97.0297 0.0 -17.7133 -17.7133
20.09 -84.3366 0.0 -17.1114 -17.1114
20.1 -74.1039 0.0 -16.4061 -16.4061
20.11 -66.6972 0.0 -15.6558 -15.6558
20.12 -62.3151 0.0 -14.9039 -14.9039
20.13 -60.9782 0.0 -14.1698 -14.1698
20.14 -62.5296 0.0 -13.4534 -13.4534
20.15 -66.6461 0.0 -12.7319 -12.7319
20.16 -72.8595 0.0 -11.9695 -11.9695
20.17 -80.5849 0.0 -11.1191 -11.1191
20.18 -89.1565 0.0 -10.1355 -10.1355
20.19 -97.8657 0.0 -8.9803 -8.9803
20.2 -106.001 0.0 -7.63093 -7.63093
20.21 -112.887 0.0 -6.08448 -6.08448
20.22 -117.916 0.0 -4.36383 -4.36383
20.23 -120.584 0.0 -2.51441 -2.51441
20.24 -120.504 0.0 -0.60175 -0.60175
20.25 -117.43 0.0 1.29113 1.29113
20.26 -111.256 0.0 3.07522 3.07522
20.27 -102.019 0.0 4.66095 4.66095
20.28 -89.8871 0.0 5.97114 5.97114
20.29 -75.1464 0.0 6.94642 6.94642
20.3 -58.1784 0.0 7.54641 7.54641
20.31 -39.436 0.0 7.77398 7.77398
20.32 -19.4163 0.0 7.65128 7.65128
20.33 1.36706 0.0 7.23394 7.23394
20.34 22.4109 0.0 6.60208 6.60208
20.35 43.2477 0.0 5.85133 5.85133
20.36 63.4667 0.0 5.08927 5.08927
20.37 82.732 0.0 4.41998 4.41998
20.38 100.794 0.0 3.93677 3.93677
20.39 117.498 0.0 3.72129 3.72129
20.4 132.782 0.0 3.82444 3.82444
20.41 146.675 0.0 4.26795 4.26795
20.42 159.288 0.0 5.04531 5.04531
20.43 170.794 0.0 6.11955 6.11955
20.44 181.417 0.0 7.43201 7.43201
20.45 191.402 0.0 8.90706 8.90706
20.46 200.997 0.0 10.4516 10.4516
20.47 210.429 0.0 11.9838 11.9838
20.48 219.878 0.0 13.4183 13.4183
20.49 229.458 0.0 14.6898 14.6898
20.5 239.204 0.0 15.7489 15.7489
20.51 249.056 0.0 16.5784 16.5784
20.52 258.855 0.0 17.1769 17.1769
20.53 268.349 0.0 17.576 17.576
20.54 277.196 0.0 17.824 17.824
20.55 284.984 0.0 17.9852 17.9852
20.56 291.251 0.0 18.1443 18.1443
20.57 295.513 0.0 18.3769 18.3769
20.58 297.297 0.0 18.7641 18.7641
20.59 296.17 0.0 19.3722 19.3722
20.6 291.774 0.0 20.2558 20.2558
20.61 283.857 0.0 21.4468 21.4468
20.62 272.296 0.0 22.9534 22.9534
20.63 257.114 0.0 24.7668 24.7668
20.64 238.496 0.0 26.8408 26.8408
20.65 216.783 0.0 29.1195 29.1195
20.66 192.467 0.0 31.5215 31.5215
20.67 166.165 0.0 33.9577 33.9577
20.68 138.6 0.0 36.3252 36.3252
20.69 110.554 0.0 38.5178 38.5178
20.7 82.8341 0.0 40.4379 40.4379
20.71 56.2223 0.0 41.9987 41.9987
20.72 31.4335 0.0 43.1145 43.1145
20.73 9.07301 0.0 43.735 43.735
20.74 -10.3993 0.0 43.8283 43.8283
20.75 -26.6958 0.0 43.3928 43.3928
20.76 -39.7169 0.0 42.4559 42.4559
20.77 -49.5553 0.0 41.0673 41.0673
20.78 -56.4871 0.0 39.3121 39.3121
20.79 -60.9498 0.0 37.2908 37.2908
20.8 -63.5097 0.0 35.1277 35.1277
20.81 -64.8202 0.0 32.9492 32.9492
20.82 -65.5728 0.0 30.8908 30.8908
20.83 -66.4457 0.0 29.0767 29.0767
20.84 -68.0527 0.0 27.6147 27.6147
20.85 -70.8962 0.0 26.5902 26.5902
20.86 -75.328 0.0 26.055 26.055
20.87 -81.5206 0.0 26.0266 26.0266
20.88 -89.4515 0.0 26.4825 26.4825
20.89 -98.902 0.0 27.362 27.362
20.9 -109.47 0.0 28.572 28.572
20.91 -120.597 0.0 29.9924 29.9924
20.92 -131.609 0.0 31.486 31.486
20.93 -141.761 0.0 32.9082 32.9082
20.94 -150.297 0.0 34.1249 34.1249
20.95 -156.502 0.0 35.0146 35.0146
20.96 -159.759 0.0 35.4918 35.4918
20.97 -159.598 0.0 35.5038 35.5038
20.98 -155.733 0.0 35.0474 35.0474
20.99 -148.092 0.0 34.1599 34.1599
21 -136.823 0.0 32.9257 32.9257
21.01 -122.295 0.0 31.4625 31.4625
21.02 -105.076 0.0 29.9144 29.9144
21.03 -85.9036 0.0 28.4376 28.4376
21.04 -65.6334 0.0 27.1884 27.1884
21.05 -45.1906 0.0 26.2986 26.2986
21.06 -25.5099 0.0 25.8879 25.8879
21.07 -7.47696 0.0 26.017 26.017
21.08 8.12674 0.0 26.7073 26.7073
21.09 20.6711 0.0 27.9269 27.9269
21.1 29.7141 0.0 29.5989 29.5989
21.11 35.0252 0.0 31.6038 31.6038
21.12 36.5935 0.0 33.7955 33.7955
21.13 34.622 0.0 36.01 36.01
21.14 29.5066 0.0 38.0874 38.0874
21.15 21.8036 0.0 39.8824 39.8824
21.16 12.1871 0.0 41.2829 41.2829
21.17 1.40063 0.0 42.2204 42.2204
21.18 -9.79366 0.0 42.6757 42.6757
21.19 -20.6648 0.0 42.6798 42.6798
21.2 -30.5577 0.0 42.3147 42.3147
21.21 -38.9294 0.0 41.6984 41.6984
21.22 -45.3757 0.0 40.9737 40.9737
21.23 -49.6456 0.0 40.2976 40.2976
21.24 -51.6434 0.0 39.8174 39.8174
21.25 -51.4196 0.0 39.6596 39.6596
21.26 -49.1509 0.0 39.9099 39.9099
21.27 -45.1124 0.0 40.6064 40.6064
21.28 -39.6442 0.0 41.7352 41.7352
21.29 -33.1157 0.0 43.2297 43.2297
21.3 -25.8904 0.0 44.9694 44.9694
21.31 -18.2942 0.0 46.8072 46.8072
21.32 -10.5901 0.0 48.5681 48.5681
21.33 -2.95956 0.0 50.0756 50.0756
21.34 4.50612 0.0 51.1689 51.1689
21.35 11.8059 0.0 51.7171 51.7171
21.36 19.0202 0.0 51.6358 51.6358
21.37 26.2947 0.0 50.8973 50.8973
21.38 33.8182 0.0 49.5298 49.5298
21.39 41.7966 0.0 47.6254 47.6254
21.4 50.4264 0.0 45.3166 45.3166
21.41 59.8681 0.0 42.7759 42.7759
21.42 70.2239 0.0 40.1931 40.1931
21.43 81.5202 0.0 37.7628 37.7628
21.44 93.6961 0.0 35.6559 35.6559
21.45 106.6 0.0 34.0087 34.0087
21.46 119.995 0.0 32.9143 32.9143
21.47 133.565 0.0 32.4087 32.4087
21.48 146.94 0.0 32.4719 32.4719
21.49 159.711 0.0 33.025 33.025
21.5 171.459 0.0 33.9528 33.9528
21.51 181.783 0.0 35.1043 35.1043
21.52 190.322 0.0 36.3188 36.3188
21.53 196.785 0.0 37.44 37.44
21.54 200.965 0.0 38.334 38.334
21.55 202.757 0.0 38.9033 38.9033
21.56 202.163 0.0 39.0956 39.0956
21.57 199.298 0.0 38.9138 38.9138
21.58 194.378 0.0 38.4044 38.4044
21.59 187.709 0.0 37.6576 37.6576
21.6 179.674 0.0 36.798 36.798
21.61 170.701 0.0 35.967 35.967
21.62 161.244 0.0 35.2985 35.2985
21.63 151.75 0.0 34.915 34.915
21.64 142.637 0.0 34.9001 34.9001
21.65 134.263 0.0 35.299 35.299
21.66 126.908 0.0 36.1047 36.1047
21.67 120.757 0.0 37.2593 37.2593
21.68 115.887 0.0 38.6622 38.6622
21.69 112.268 0.0 40.1757 40.1757
21.7 109.767 0.0 41.6448 41.6448
21.71 108.158 0.0 42.9084 42.9084
21.72 107.14 0.0 43.8226 43.8226
21.73 106.368 0.0 44.2741 44.2741
21.74 105.472 0.0 44.1909 44.1909
21.75 104.095 0.0 43.5549 43.5549
21.76 101.92 0.0 42.4065 42.4065
21.77 98.6968 0.0 40.8322 40.8322
21.78 94.2702 0.0 38.9688 38.9688
21.79 88.5926 0.0 36.9804 36.9804
21.8 81.7346 0.0 35.0494 35.0494
21.81 73.8848 0.0 33.3502 33.3502
21.82 65.3398 0.0 32.0402 32.0402
21.83 56.4855 0.0 31.2375 31.2375
21.84 47.7691 0.0 31.0179 31.0179
21.85 39.6662 0.0 31.3968 31.3968
21.86 32.6424 0.0 32.3396 32.3396
21.87 27.1137 0.0 33.7583 33.7583
21.88 23.4094 0.0 35.5236 35.5236
21.89 21.7385 0.0 37.4805 37.4805
21.9 22.164 0.0 39.464 39.464
21.91 24.5869 0.0 41.3121 41.3121
21.92 28.7421 0.0 42.8899 42.8899
21.93 34.2055 0.0 44.0935 44.0935
21.94 40.4143 0.0 44.8657 44.8657
21.95 46.6984 0.0 45.1946 45.1946
21.96 52.3203 0.0 45.1217 45.1217
21.97 56.5223 0.0 44.7257 44.7257
21.98 58.5762 0.0 44.1188 44.1188
21.99 57.8331 0.0 43.4269 43.4269
22 53.769 0.0 42.785 42.785
22.01 46.0218 0.0 42.3142 42.3142
22.02 34.4197 0.0 42.1133 42.1133
22.03 18.9945 0.0 42.2465 42.2465
22.04 -0.0163539 0.0 42.7404 42.7404
22.05 -22.184 0.0 43.585 43.585
22.06 -46.9136 0.0 44.7236 44.7236
22.07 -73.4819 0.0 46.0769 46.0769
22.08 -101.083 0.0 47.5465 47.5465
22.09 -128.876 0.0 49.027 49.027
22.1 -156.041 0.0 50.416 50.416
22.11 -181.822 0.0 51.6273 51.6273
22.12 -205.573 0.0 52.6011 52.6011
22.13 -226.787 0.0 53.3114 53.3114
22.14 -245.121 0.0 53.7511 53.7511
22.15 -260.401 0.0 53.9585 53.9585
22.16 -272.618 0.0 53.9882 53.9882
22.17 -281.916 0.0 53.9151 53.9151
22.18 -288.56 0.0 53.8166 53.8166
22.19 -292.903 0.0 53.768 53.768
22.2 -295.351 0.0 53.8343 53.8343
22.21 -296.32 0.0 54.051 54.051
22.22 -296.198 0.0 54.4326 54.4326
22.23 -295.313 0.0 54.9668 54.9668
22.24 -293.909 0.0 55.6144 55.6144
22.25 -292.13 0.0 56.3165 56.3165
22.26 -290.012 0.0 56.9989 56.9989
22.27 -287.487 0.0 57.59 57.59
22.28 -284.399 0.0 58.0181 58.0181
22.29 -280.523 0.0 58.2317 58.2317
22.3 -275.589 0.0 58.201 58.201
22.31 -269.315 0.0 57.922 57.922
22.32 -261.433 0.0 57.4219 57.4219
22.33 -251.717 0.0 56.7538 56.7538
22.34 -240.005 0.0 55.9924 55.9924
22.35 -226.219 0.0 55.2292 55.2292
22.36 -210.37 0.0 54.5549 54.5549
22.37 -192.563 0.0 54.0632 54.0632
22.38 -172.994 0.0 53.8228 53.8228
22.39 -151.935 0.0 53.8981 53.8981
22.4 -129.723 0.0 54.3078 54.3078
22.41 -106.737 0.0 55.0486 55.0486
22.42 -83.3793 0.0 56.0843 56.0843
22.43 -60.0568 0.0 57.3518 57.3518
22.44 -37.1595 0.0 58.7665 58.7665
22.45 -15.0476 0.0 60.2306 60.2306
22.46 5.96042 0.0 61.6366 61.6366
22.47 25.5942 0.0 62.8988 62.8988
22.48 43.634 0.0 63.922 63.922
22.49 59.9085 0.0 64.6435 64.6435
22.5 74.2898 0.0 65.0202 65.0202
22.51 86.6861 0.0 65.0349 65.0349
22.52 97.0333 0.0 64.6937 64.6937
22.53 105.286 0.0 64.026 64.026
22.54 111.411 0.0 63.0812 63.0812
22.55 115.38 0.0 61.9128 61.9128
22.56 117.17 0.0 60.5859 60.5859
22.57 116.76 0.0 59.1622 59.1622
22.58 114.135 0.0 57.6932 57.6932
22.59 109.293 0.0 56.2305 56.2305
22.6 102.25 0.0 54.8012 54.8012
22.61 93.0518 0.0 53.4292 53.4292
22.62 81.7812 0.0 52.1218 52.1218
22.63 68.5673 0.0 50.8807 50.8807
22.64 53.5924 0.0 49.6916 49.6916
22.65 37.0976 0.0 48.5424 48.5424
22.66 19.3834 0.0 47.4196 47.4196
22.67 0.808457 0.0 46.3055 46.3055
22.68 -18.2166 0.0 45.1826 45.1826
22.69 -37.239 0.0 44.036 44.036
22.7 -55.7774 0.0 42.8494 42.8494
22.71 -73.3386 0.0 41.6066 41.6066
22.72 -89.4366 0.0 40.2816 40.2816
22.73 -103.613 0.0 38.8501 38.8501
22.74 -115.459 0.0 37.2841 37.2841
22.75 -124.634 0.0 35.5502 35.5502
22.76 -130.885 0.0 33.6154 33.6154
22.77 -134.061 0.0 31.4443 31.4443
22.78 -134.123 0.0 29.0111 29.0111
22.79 -131.149 0.0 26.2973 26.2973
22.8 -125.335 0.0 23.2995 23.2995
22.81 -116.987 0.0 20.0312 20.0312
22.82 -106.507 0.0 16.5234 16.5234
22.83 -94.3776 0.0 12.8306 12.8306
22.84 -81.1349 0.0 9.02094 9.02094
22.85 -67.3455 0.0 5.18352 5.18352
22.86 -53.5753 0.0 1.40927 1.40927
22.87 -40.361 0.0 -2.20199 -2.20199
22.88 -28.1827 0.0 -5.55933 -5.55933
22.89 -17.4389 0.0 -8.58214 -8.58214
22.9 -8.42733 0.0 -11.2117 -11.2117
22.91 -1.33158 0.0 -13.4134 -13.4134
22.92 3.78537 0.0 -15.1824 -15.1824
22.93 6.97949 0.0 -16.5395 -16.5395
22.94 8.41688 0.0 -17.5379 -17.5379
22.95 8.35796 0.0 -18.246 -18.246
22.96 7.13591 0.0 -18.7539 -18.7539
22.97 5.13114 0.0 -19.1491 -19.1491
22.98 2.74347 0.0 -19.5275 -19.5275
22.99 0.364383 0.0 -19.9614 -19.9614
23 -1.64865 0.0 -20.5134 -20.5134
23.01 -2.99382 0.0 -21.2162 -21.2162
23.02 -3.44094 0.0 -22.0781 -22.0781
23.03 -2.84062 0.0 -23.0824 -23.0824
23.04 -1.12606 0.0 -24.1889 -24.1889
23.05 1.69236 0.0 -25.3424 -25.3424
23.06 5.53904 0.0 -26.48 -26.48
23.07 10.2903 0.0 -27.5433 -27.5433
23.08 15.7948 0.0 -28.4828 -28.4828
23.09 21.8959 0.0 -29.2709 -29.2709
23.1 28.4517 0.0 -29.9027 -29.9027
23.11 35.3541 0.0 -30.4061 -30.4061
23.12 42.5409 0.0 -30.8329 -30.8329
23.13 50.0034 0.0 -31.2634 -31.2634
23.14 57.7856 0.0 -31.7896 -31.7896
23.15 65.9772 0.0 -32.5132 -32.5132
23.16 74.6999 0.0 -33.5379 -33.5379
23.17 84.0879 0.0 -34.9449 -34.9449
23.18 94.2655 0.0 -36.7955 -36.7955
23.19 105.324 0.0 -39.1165 -39.1165
23.2 117.296 0.0 -41.8963 -41.8963
23.21 130.143 0.0 -45.0888 -45.0888
23.22 143.733 0.0 -48.6027 -48.6027
23.23 157.84 0.0 -52.321 -52.321
23.24 172.145 0.0 -56.109 -56.109
23.25 186.244 0.0 -59.8179 -59.8179
23.26 199.668 0.0 -63.3068 -63.3068
23.27 211.907 0.0 -66.4479 -66.4479
23.28 222.441 0.0 -69.1427 -69.1427
23.29 230.77 0.0 -71.3322 -71.3322
23.3 236.45 0.0 -72.9914 -72.9914
23.31 239.12 0.0 -74.141 -74.141
23.32 238.526 0.0 -74.8409 -74.8409
23.33 234.541 0.0 -75.1828 -75.1828
23.34 227.172 0.0 -75.276 -75.276
23.35 216.561 0.0 -75.2431 -75.2431
23.36 202.974 0.0 -75.2045 -75.2045
23.37 186.786 0.0 -75.2628 -75.2628
23.38 168.451 0.0 -75.4962 -75.4962
23.39 148.481 0.0 -75.9605 -75.9605
23.4 127.406 0.0 -76.6699 -76.6699
23.41 105.751 0.0 -77.6049 -77.6049
23.42 84.0035 0.0 -78.7185 -78.7185
23.43 62.5924 0.0 -79.9454 -79.9454
23.44 41.8719 0.0 -81.2029 -81.2029
23.45 22.1136 0.0 -82.4116 -82.4116
23.46 3.50623 0.0 -83.4962 -83.4962
23.47 -13.8372 0.0 -84.4118 -84.4118
23.48 -29.8654 0.0 -85.1306 -85.1306
23.49 -44.5713 0.0 -85.6547 -85.6547
23.5 -57.9712 0.0 -86.0158 -86.0158
23.51 -70.0844 0.0 -86.2766 -86.2766
23.52 -80.9154 0.0 -86.5156 -86.5156
23.53 -90.4401 0.0 -86.8229 -86.8229
23.54 -98.5974 0.0 -87.2926 -87.2926
23.55 -105.289 0.0 -88.0024 -88.0024
23.56 -110.383 0.0 -89.0181 -89.0181
23.57 -113.73 0.0 -90.3744 -90.3744
23.58 -115.176 0.0 -92.0737 -92.0737
23.59 -114.589 0.0 -94.0848 -94.0848
23.6 -111.876 0.0 -96.3447 -96.3447
23.61 -107.009 0.0 -98.7645 -98.7645
23.62 -100.038 0.0 -101.237 -101.237
23.63 -91.1099 0.0 -103.644 -103.644
23.64 -80.4696 0.0 -105.864 -105.864
23.65 -68.458 0.0 -107.792 -107.792
23.66 -55.5011 0.0 -109.338 -109.338
23.67 -42.0904 0.0 -110.439 -110.439
23.68 -28.7562 0.0 -111.058 -111.058
23.69 -16.0362 0.0 -111.191 -111.191
23.7 -4.44138 0.0 -110.86 -110.86
23.71 5.57833 0.0 -110.111 -110.111
23.72 13.6655 0.0 -108.999 -108.999
23.73 19.5811 0.0 -107.6 -107.6
23.74 23.2229 0.0 -105.982 -105.982
23.75 24.6341 0.0 -104.213 -104.213
23.76 24.0016 0.0 -102.352 -102.352
23.77 21.6439 0.0 -100.439 -100.439
23.78 17.9883 0.0 -98.5043 -98.5043
23.79 13.5408 0.0 -96.5648 -96.5648
23.8 8.84814 0.0 -94.6261 -94.6261
23.81 4.45785 0.0 -92.6889 -92.6889
23.82 0.876417 0.0 -90.7534 -90.7534
23.83 -1.46911 0.0 -88.8219 -88.8219
23.84 -2.2642 0.0 -86.9048 -86.9048
23.85 -1.3317 0.0 -85.0203 -85.0203
23.86 1.35357 0.0 -83.1976 -83.1976
23.87 5.66164 0.0 -81.4736 -81.4736
23.88 11.3161 0.0 -79.8881 -79.8881
23.89 17.9139 0.0 -78.4779 -78.4779
23.9 24.9557 0.0 -77.2787 -77.2787
23.91 31.8831 0.0 -76.3101 -76.3101
23.92 38.1218 0.0 -75.5758 -75.5758
23.93 43.1257 0.0 -75.0587 -75.0587
23.94 46.4207 0.0 -74.7247 -74.7247
23.95 47.6428 0.0 -74.5148 -74.5148
23.96 46.5693 0.0 -74.3543 -74.3543
23.97 43.1397 0.0 -74.1587 -74.1587
23.98 37.4654 0.0 -73.8394 -73.8394
23.99 29.8269 0.0 -73.3159 -73.3159
24 20.6592 0.0 -72.5172 -72.5172
24.01 10.5256 0.0 -71.3936 -71.3936
24.02 0.0825209 0.0 -69.9225 -69.9225
24.03 -9.96237 0.0 -68.1116 -68.1116
24.04 -18.8962 0.0 -65.9988 -65.9988
24.05 -26.0472 0.0 -63.6488 -63.6488
24.06 -30.8285 0.0 -61.1525 -61.1525
24.07 -32.7763 0.0 -58.6087 -58.6087
24.08 -31.5795 0.0 -56.1305 -56.1305
24.09 -27.0994 0.0 -53.8206 -53.8206
24.1 -19.378 0.0 -51.771 -51.771
24.11 -8.63446 0.0 -50.0505 -50.0505
24.12 4.7498 0.0 -48.6998 -48.6998
24.13 20.2559 0.0 -47.7299 -47.7299
24.14 37.2601 0.0 -47.1131 -47.1131
24.15 55.0726 0.0 -46.7966 -46.7966
24.16 72.9787 0.0 -46.7047 -46.7047
24.17 90.2794 0.0 -46.7384 -46.7384
24.18 106.331 0.0 -46.8015 -46.8015
24.19 120.575 0.0 -46.7874 -46.7874
24.2 132.571 0.0 -46.6116 -46.6116
24.21 142.003 0.0 -46.2021 -46.2021
24.22 148.698 0.0 -45.5114 -45.5114
24.23 152.619 0.0 -44.5232 -44.5232
24.24 153.856 0.0 -43.2496 -43.2496
24.25 152.608 0.0 -41.7249 -41.7249
24.26 149.164 0.0 -40.0083 -40.0083
24.27 143.875 0.0 -38.1683 -38.1683
24.28 137.126 0.0 -36.2865 -36.2865
24.29 129.308 0.0 -34.4372 -34.4372
24.3 120.801 0.0 -32.6867 -32.6867
24.31 111.945 0.0 -31.0868 -31.0868
24.32 103.032 0.0 -29.6698 -29.6698
24.33 94.294 0.0 -28.442 -28.442
24.34 85.9005 0.0 -27.3935 -27.3935
24.35 77.9596 0.0 -26.4906 -26.4906
24.36 70.5247 0.0 -25.6847 -25.6847
24.37 63.6034 0.0 -24.9204 -24.9204
24.38 57.1696 0.0 -24.1356 -24.1356
24.39 51.1743 0.0 -23.2753 -23.2753
24.4 45.558 0.0 -22.29 -22.29
24.41 40.2597 0.0 -21.1447 -21.1447
24.42 35.2245 0.0 -19.8195 -19.8195
24.43 30.4084 0.0 -18.3174 -18.3174
24.44 25.7798 0.0 -16.6518 -16.6518
24.45 21.3191 0.0 -14.8581 -14.8581
24.46 17.0161 0.0 -12.9791 -12.9791
24.47 12.8654 0.0 -11.0694 -11.0694
24.48 8.8626 0.0 -9.1876 -9.1876
24.49 4.9996 0.0 -7.3886 -7.3886
24.5 1.26131 0.0 -5.72831 -5.72831
24.51 -2.37624 0.0 -4.24976 -4.24976
24.52 -5.94612 0.0 -2.98788 -2.98788
24.53 -9.48897 0.0 -1.96803 -1.96803
24.54 -13.05 0.0 -1.20199 -1.20199
24.55 -16.6748 0.0 -0.691195 -0.691195
24.56 -20.4047 0.0 -0.425335 -0.425335
24.57 -24.272 0.0 -0.388034 -0.388034
24.58 -28.2963 0.0 -0.553733 -0.553733
24.59 -32.4816 0.0 -0.890371 -0.890371
24.6 -36.8155 0.0 -1.36146 -1.36146
24.61 -41.2696 0.0 -1.92941 -1.92941
24.62 -45.8019 0.0 -2.55115 -2.55115
24.63 -50.3606 0.0 -3.18335 -3.18335
24.64 -54.8892 0.0 -3.78279 -3.78279
24.65 -59.3307 0.0 -4.30932 -4.30932
24.66 -63.6326 0.0 -4.72237 -4.72237
24.67 -67.7506 0.0 -4.9864 -4.9864
24.68 -71.65 0.0 -5.07197 -5.07197
24.69 -75.3062 0.0 -4.95978 -4.95978
24.7 -78.7023 0.0 -4.63775 -4.63775
24.71 -81.825 0.0 -4.10702 -4.10702
24.72 -84.6596 0.0 -3.38041 -3.38041
24.73 -87.1833 0.0 -2.48471 -2.48471
24.74 -89.3591 0.0 -1.45788 -1.45788
24.75 -91.1306 0.0 -0.348367 -0.348367
24.76 -92.4185 0.0 0.787527 0.787527
24.77 -93.1199 0.0 1.89092 1.89092
24.78 -93.1109 0.0 2.90587 2.90587
24.79 -92.2524 0.0 3.77537 3.77537
24.8 -90.3998 0.0 4.45976 4.45976
24.81 -87.415 0.0 4.92998 4.92998
24.82 -83.181 0.0 5.17296 5.17296
24.83 -77.6168 0.0 5.19675 5.19675
24.84 -70.6923 0.0 5.02434 5.02434
24.85 -62.4413 0.0 4.70032 4.70032
24.86 -52.9704 0.0 4.27743 4.27743
24.87 -42.4643 0.0 3.82333 3.82333
24.88 -31.1851 0.0 3.4001 3.4001
24.89 -19.4658 0.0 3.08277 3.08277
24.9 -7.69802 0.0 2.92202 2.92202
24.91 3.68533 0.0 2.96567 2.96567
24.92 14.232 0.0 3.23696 3.23696
24.93 23.4948 0.0 3.7432 3.7432
24.94 31.0564 0.0 4.47056 4.47056
24.95 36.554 0.0 5.38302 5.38302
24.96 39.6996 0.0 6.42936 6.42936
24.97 40.297 0.0 7.545 7.545
24.98 38.251 0.0 8.66002 8.66002
24.99 33.5707 0.0 9.69929 9.69929
25 26.3651 0.0 10.5959 10.5959
25.01 16.8315 0.0 11.2945 11.2945
25.02 5.23804 0.0 11.752 11.752
25.03 -8.09782 0.0 11.9458 11.9458
25.04 -22.8339 0.0 11.8689 11.8689
25.05 -38.628 0.0 11.542 11.542
25.06 -55.1602 0.0 10.9902 10.9902
25.07 -72.1524 0.0 10.2634 10.2634
25.08 -89.3808 0.0 9.41577 9.41577
25.09 -106.683 0.0 8.5096 8.5096
25.1 -123.955 0.0 7.60327 7.60327
25.11 -141.148 0.0 6.7524 6.7524
25.12 -158.25 0.0 6.00485 6.00485
25.13 -175.267 0.0 5.39798 5.39798
25.14 -192.205 0.0 4.94749 4.94749
25.15 -209.048 0.0 4.66673 4.66673
25.16 -225.733 0.0 4.55224 4.55224
25.17 -242.143 0.0 4.58934 4.58934
25.18 -258.092 0.0 4.75689 4.75689
25.19 -273.323 0.0 5.03025 5.03025
25.2 -287.518 0.0 5.37722 5.37722
25.21 -300.307 0.0 5.76947 5.76947
25.22 -311.292 0.0 6.17884 6.17884
25.23 -320.068 0.0 6.58161 6.58161
25.24 -326.255 0.0 6.95766 6.95766
25.25 -329.525 0.0 7.29515 7.29515
25.26 -329.63 0.0 7.58094 7.58094
25.27 -326.42 0.0 7.81041 7.81041
25.28 -319.864 0.0 7.9757 7.9757
25.29 -310.05 0.0 8.07867 8.07867
25.3 -297.189 0.0 8.11412 8.11412
25.31 -281.603 0.0 8.08802 8.08802
25.32 -263.704 0.0 8.00078 8.00078
25.33 -243.97 0.0 7.85901 7.85901
25.34 -222.917 0.0 7.66999 7.66999
25.35 -201.065 0.0 7.44414 7.44414
25.36 -178.909 0.0 7.19432 7.19432
25.37 -156.891 0.0 6.94332 6.94332
25.38 -135.378 0.0 6.70876 6.70876
25.39 -114.645 0.0 6.52389 6.52389
25.4 -94.8714 0.0 6.41645 6.41645
25.41 -76.1394 0.0 6.4164 6.4164
25.42 -58.4423 0.0 6.55132 6.55132
25.43 -41.7 0.0 6.84895 6.84895
25.44 -25.7772 0.0 7.33122 7.33122
25.45 -10.5057 0.0 8.01366 8.01366
25.46 4.29501 0.0 8.89899 8.89899
25.47 18.7972 0.0 9.99183 9.99183
25.48 33.1493 0.0 11.2797 11.2797
25.49 47.4647 0.0 12.7413 12.7413
25.5 61.8157 0.0 14.3473 14.3473
25.51 76.2336 0.0 16.0634 16.0634
25.52 90.7128 0.0 17.8502 17.8502
25.53 105.219 0.0 19.6641 19.6641
25.54 119.699 0.0 21.4622 21.4622
25.55 134.091 0.0 23.1959 23.1959
25.56 148.335 0.0 24.8311 24.8311
25.57 162.376 0.0 26.3278 26.3278
25.58 176.17 0.0 27.6519 27.6519
25.59 189.68 0.0 28.7772 28.7772
25.6 202.87 0.0 29.6858 29.6858
25.61 215.7 0.0 30.3624 30.3624
25.62 228.109 0.0 30.7999 30.7999
25.63 240.011 0.0 30.9948 30.9948
25.64 251.281 0.0 30.9649 30.9649
25.65 261.75 0.0 30.721 30.721
25.66 271.204 0.0 30.2836 30.2836
25.67 279.391 0.0 29.6875 29.6875
25.68 286.025 0.0 28.9693 28.9693
25.69 290.81 0.0 28.174 28.174
25.7 293.457 0.0 27.3487 27.3487
25.71 293.71 0.0 26.5444 26.5444
25.72 291.367 0.0 25.8122 25.8122
25.73 286.309 0.0 25.1979 25.1979
25.74 278.516 0.0 24.7447 24.7447
25.75 268.081 0.0 24.4832 24.4832
25.76 255.213 0.0 24.4303 24.4303
25.77 240.235 0.0 24.5918 24.5918
25.78 223.572 0.0 24.9562 24.9562
25.79 205.723 0.0 25.4955 25.4955
25.8 187.24 0.0 26.1707 26.1707
25.81 168.687 0.0 26.9181 26.9181
25.82 150.607 0.0 27.6778 27.6778
25.83 133.489 0.0 28.3832 28.3832
25.84 117.733 0.0 28.966 28.966
25.85 103.631 0.0 29.368 29.368
25.86 91.3485 0.0 29.5385 29.5385
25.87 80.9221 0.0 29.4489 29.4489
25.88 72.2651 0.0 29.0859 29.0859
25.89 65.1839 0.0 28.4551 28.4551
25.9 59.4031 0.0 27.5859 27.5859
25.91 54.5961 0.0 26.5239 26.5239
25.92 50.4193 0.0 25.3297 25.3297
25.93 46.5461 0.0 24.0699 24.0699
25.94 42.6976 0.0 22.8144 22.8144
25.95 38.6667 0.0 21.6293 21.6293
25.96 34.3345 0.0 20.5715 20.5715
25.97 29.6765 0.0 19.6795 19.6795
25.98 24.7583 0.0 18.9747 18.9747
25.99 19.7222 0.0 18.4628 18.4628
26 14.7659 0.0 18.1231 18.1231
26.01 10.1145 0.0 17.9245 17.9245
26.02 5.99086 0.0 17.8181 17.8181
26.03 2.58569 0.0 17.7533 17.7533
26.04 0.0310446 0.0 17.676 17.676
26.05 -1.61984 0.0 17.5398 17.5398
26.06 -2.40466 0.0 17.3087 17.3087
26.07 -2.4547 0.0 16.9677 16.9677
26.08 -1.98776 0.0 16.5158 16.5158
26.09 -1.29215 0.0 15.9741 15.9741
26.1 -0.703248 0.0 15.3792 15.3792
26.11 -0.574967 0.0 14.783 14.783
26.12 -1.24891 0.0 14.2419 14.2419
26.13 -3.02422 0.0 13.8162 13.8162
26.14 -6.13094 0.0 13.5579 13.5579
26.15 -10.7095 0.0 13.5075 13.5075
26.16 -16.7977 0.0 13.6847 13.6847
26.17 -24.3275 0.0 14.0865 14.0865
26.18 -33.1297 0.0 14.6907 14.6907
26.19 -42.9477 0.0 15.4467 15.4467
26.2 -53.4584 0.0 16.2914 16.2914
26.21 -64.2967 0.0 17.1457 17.1457
26.22 -75.0833 0.0 17.9243 17.9243
26.23 -85.4514 0.0 18.5484 18.5484
26.24 -95.0709 0.0 18.9509 18.9509
26.25 -103.667 0.0 19.0841 19.0841
26.26 -111.034 0.0 18.9247 18.9247
26.27 -117.038 0.0 18.4795 18.4795
26.28 -121.617 0.0 17.7839 17.7839
26.29 -124.773 0.0 16.9002 16.9002
26.3 -126.557 0.0 15.9148 15.9148
26.31 -127.051 0.0 14.928 14.928
26.32 -126.353 0.0 14.0442 14.0442
26.33 -124.558 0.0 13.3693 13.3693
26.34 -121.744 0.0 12.989 12.989
26.35 -117.961 0.0 12.9741 12.9741
26.36 -113.229 0.0 13.3619 13.3619
26.37 -107.536 0.0 14.1608 14.1608
26.38 -100.845 0.0 15.3454 15.3454
26.39 -93.1076 0.0 16.8596 16.8596
26.4 -84.2718 0.0 18.6208 18.6208
26.41 -74.3022 0.0 20.5282 20.5282
26.42 -63.1924 0.0 22.4724 22.4724
26.43 -50.9778 0.0 24.3388 24.3388
26.44 -37.7457 0.0 26.0287 26.0287
26.45 -23.6393 0.0 27.4593 27.4593
26.46 -8.85784 0.0 28.5638 28.5638
26.47 6.34804 0.0 29.322 29.322
26.48 21.6864 0.0 29.7286 29.7286
26.49 36.8366 0.0 29.8124 29.8124
26.5 51.4651 0.0 29.6259 29.6259
26.51 65.2418 0.0 29.2432 29.2432
26.52 77.8557 0.0 28.7483 28.7483
26.53 89.03 0.0 28.233 28.233
26.54 98.5336 0.0 27.7804 27.7804
26.55 106.19 0.0 27.4676 27.4676
26.56 111.884 0.0 27.3569 27.3569
26.57 115.561 0.0 27.4872 27.4872
26.58 117.228 0.0 27.8809 27.8809
26.59 116.952 0.0 28.5391 28.5391
26.6 114.852 0.0 29.4431 29.4431
26.61 111.096 0.0 30.5635 30.5635
26.62 105.893 0.0 31.8584 31.8584
26.63 99.4888 0.0 33.2872 33.2872
26.64 92.1606 0.0 34.8024 34.8024
26.65 84.209 0.0 36.362 36.362
26.66 75.9547 0.0 37.9323 37.9323
26.67 67.7311 0.0 39.4849 39.4849
26.68 59.8776 0.0 40.9994 40.9994
26.69 52.7312 0.0 42.4618 42.4618
26.7 46.6163 0.0 43.8607 43.8607
26.71 41.8332 0.0 45.1888 45.1888
26.72 38.6454 0.0 46.4346 46.4346
26.73 37.2662 0.0 47.5908 47.5908
26.74 37.8457 0.0 48.6413 48.6413
26.75 40.4589 0.0 49.5701 49.5701
26.76 45.0964 0.0 50.3546 50.3546
26.77 51.6585 0.0 50.9765 50.9765
26.78 59.9538 0.0 51.4162 51.4162
26.79 69.7028 0.0 51.6622 51.6622
26.8 80.5471 0.0 51.7069 51.7069
26.81 92.063 0.0 51.558 51.558
26.82 103.78 0.0 51.2349 51.2349
26.83 115.203 0.0 50.7651 50.7651
26.84 125.835 0.0 50.1883 50.1883
26.85 135.201 0.0 49.5564 49.5564
26.86 142.87 0.0 48.9246 48.9246
26.87 148.477 0.0 48.3515 48.3515
26.88 151.734 0.0 47.8914 47.8914
26.89 152.438 0.0 47.5916 47.5916
26.9 150.483 0.0 47.4879 47.4879
26.91 145.848 0.0 47.6036 47.6036
26.92 138.598 0.0 47.9422 47.9422
26.93 128.866 0.0 48.4956 48.4956
26.94 116.847 0.0 49.2377 49.2377
26.95 102.777 0.0 50.1348 50.1348
26.96 86.9223 0.0 51.1437 51.1437
26.97 69.5658 0.0 52.2142 52.2142
26.98 50.9989 0.0 53.3011 53.3011
26.99 31.515 0.0 54.368 54.368
27 11.4074 0.0 55.3836 55.3836
27.01 -9.02918 0.0 56.3292 56.3292
27.02 -29.4951 0.0 57.2001 57.2001
27.03 -49.681 0.0 58.002 58.002
27.04 -69.2633 0.0 58.7513 58.7513
27.05 -87.9013 0.0 59.4743 59.4743
27.06 -105.237 0.0 60.188 60.188
27.07 -120.899 0.0 60.919 60.919
27.08 -134.511 0.0 61.6831 61.6831
27.09 -145.705 0.0 62.4898 62.4898
27.1 -154.136 0.0 63.3338 63.3338
27.11 -159.504 0.0 64.2006 64.2006
27.12 -161.572 0.0 65.0617 65.0617
27.13 -160.187 0.0 65.8774 65.8774
27.14 -155.299 0.0 66.6093 66.6093
27.15 -146.97 0.0 67.2128 67.2128
27.16 -135.382 0.0 67.6463 67.6463
27.17 -120.841 0.0 67.8792 67.8792
27.18 -103.764 0.0 67.8892 67.8892
27.19 -84.6675 0.0 67.6745 67.6745
27.2 -64.1443 0.0 67.2433 67.2433
27.21 -42.8384 0.0 66.6194 66.6194
27.22 -21.4139 0.0 65.8539 65.8539
27.23 -0.52465 0.0 64.9967 64.9967
27.24 19.2164 0.0 64.1096 64.1096
27.25 37.2636 0.0 63.2524 63.2524
27.26 53.1608 0.0 62.4892 62.4892
27.27 66.5563 0.0 61.8707 61.8707
27.28 77.2117 0.0 61.4403 61.4403
27.29 85.0022 0.0 61.2238 61.2238
27.3 89.9109 0.0 61.2331 61.2331
27.31 92.0166 0.0 61.4644 61.4644
27.32 91.4774 0.0 61.8986 61.8986
27.33 88.5117 0.0 62.5053 62.5053
27.34 83.3777 0.0 63.2473 63.2473
27.35 76.3543 0.0 64.0807 64.0807
27.36 67.724 0.0 64.963 64.963
27.37 57.7598 0.0 65.8532 65.8532
27.38 46.7151 0.0 66.7199 66.7199
27.39 34.8193 0.0 67.5297 67.5297
27.4 22.2765 0.0 68.2645 68.2645
27.41 9.26776 0.0 68.9122 68.9122
27.42 -4.04398 0.0 69.463 69.463
27.43 -17.5082 0.0 69.9132 69.9132
27.44 -30.9809 0.0 70.2559 70.2559
27.45 -44.3195 0.0 70.4875 70.4875
27.46 -57.3802 0.0 70.5982 70.5982
27.47 -70.0168 0.0 70.5698 70.5698
27.48 -82.0829 0.0 70.3839 70.3839
27.49 -93.4361 0.0 70.0181 70.0181
27.5 -103.944 0.0 69.4436 69.4436
27.51 -113.49 0.0 68.6348 68.6348
27.52 -121.983 0.0 67.5699 67.5699
27.53 -129.362 0.0 66.23 66.23
27.54 -135.601 0.0 64.6063 64.6063
27.55 -140.714 0.0 62.7006 62.7006
27.56 -144.75 0.0 60.525 60.525
27.57 -147.797 0.0 58.1063 58.1063
27.58 -149.973 0.0 55.4791 55.4791
27.59 -151.418 0.0 52.6892 52.6892
27.6 -152.288 0.0 49.7863 49.7863
27.61 -152.744 0.0 46.8249 46.8249
27.62 -152.941 0.0 43.8535 43.8535
27.63 -153.024 0.0 40.9199 40.9199
27.64 -153.114 0.0 38.0617 38.0617
27.65 -153.306 0.0 35.3064 35.3064
27.66 -153.668 0.0 32.6738 32.6738
27.67 -154.231 0.0 30.1699 30.1699
27.68 -154.997 0.0 27.7927 27.7927
27.69 -155.935 0.0 25.5336 25.5336
27.7 -156.986 0.0 23.3837 23.3837
27.71 -158.065 0.0 21.3268 21.3268
27.72 -159.065 0.0 19.3518 19.3518
27.73 -159.86 0.0 17.4536 17.4536
27.74 -160.308 0.0 15.6309 15.6309
27.75 -160.257 0.0 13.8861 13.8861
27.76 -159.547 0.0 12.2331 12.2331
27.77 -158.015 0.0 10.682 10.682
27.78 -155.5 0.0 9.2469 9.2469
27.79 -151.85 0.0 7.93863 7.93863
27.8 -146.928 0.0 6.75854 6.75854
27.81 -140.621 0.0 5.70679 5.70679
27.82 -132.849 0.0 4.76117 4.76117
27.83 -123.574 0.0 3.89621 3.89621
27.84 -112.808 0.0 3.07188 3.07188
27.85 -100.62 0.0 2.23921 2.23921
27.86 -87.1449 0.0 1.34093 1.34093
27.87 -72.5824 0.0 0.32042 0.32042
27.88 -57.1992 0.0 -0.875773 -0.875773
27.89 -41.3237 0.0 -2.28925 -2.28925
27.9 -25.3378 0.0 -3.9502 -3.9502
27.91 -9.66424 0.0 -5.86976 -5.86976
27.92 5.24898 0.0 -8.03698 -8.03698
27.93 18.9475 0.0 -10.4215 -10.4215
27.94 30.9911 0.0 -12.9691 -12.9691
27.95 40.9746 0.0 -15.6086 -15.6086
27.96 48.5484 0.0 -18.2594 -18.2594
27.97 53.4362 0.0 -20.8322 -20.8322
27.98 55.4505 0.0 -23.2385 -23.2385
27.99 54.5032 0.0 -25.4042 -25.4042
28 50.6114 0.0 -27.2654 -27.2654
28.01 43.8982 0.0 -28.7842 -28.7842
28.02 34.5882 0.0 -29.9472 -29.9472
28.03 22.9987 0.0 -30.7657 -30.7657
28.04 9.52576 0.0 -31.2828 -31.2828
28.05 -5.37157 0.0 -31.5534 -31.5534
28.06 -21.1902 0.0 -31.6678 -31.6678
28.07 -37.4022 0.0 -31.7118 -31.7118
28.08 -53.4746 0.0 -31.7804 -31.7804
28.09 -68.8874 0.0 -31.9596 -31.9596
28.1 -83.1505 0.0 -32.3235 -32.3235
28.11 -95.8177 0.0 -32.9283 -32.9283
28.12 -106.499 0.0 -33.8013 -33.8013
28.13 -114.868 0.0 -34.9472 -34.9472
28.14 -120.67 0.0 -36.3448 -36.3448
28.15 -123.726 0.0 -37.9533 -37.9533
28.16 -123.93 0.0 -39.7086 -39.7086
28.17 -121.256 0.0 -41.5395 -41.5395
28.18 -115.75 0.0 -43.3765 -43.3765
28.19 -107.526 0.0 -45.1482 -45.1482
28.2 -96.7667 0.0 -46.8043 -46.8043
28.21 -83.7129 0.0 -48.3081 -48.3081
28.22 -68.6567 0.0 -49.6423 -49.6423
28.23 -51.9329 0.0 -50.8171 -50.8171
28.24 -33.909 0.0 -51.863 -51.863
28.25 -14.9734 0.0 -52.8266 -52.8266
28.26 4.47647 0.0 -53.7625 -53.7625
28.27 24.0471 0.0 -54.7341 -54.7341
28.28 43.3621 0.0 -55.7951 -55.7951
28.29 62.0742 0.0 -56.9892 -56.9892
28.3 79.8766 0.0 -58.3436 -58.3436
28.31 96.5126 0.0 -59.8516 -59.8516
28.32 111.782 0.0 -61.491 -61.491
28.33 125.545 0.0 -63.2099 -63.2099
28.34 137.723 0.0 -64.9378 -64.9378
28.35 148.295 0.0 -66.5861 -66.5861
28.36 157.294 0.0 -68.0595 -68.0595
28.37 164.794 0.0 -69.2646 -69.2646
28.38 170.904 0.0 -70.1215 -70.1215
28.39 175.753 0.0 -70.5637 -70.5637
28.4 179.48 0.0 -70.56 -70.56
28.41 182.222 0.0 -70.1061 -70.1061
28.42 184.105 0.0 -69.232 -69.232
28.43 185.237 0.0 -68.0005 -68.0005
28.44 185.703 0.0 -66.5009 -66.5009
28.45 185.568 0.0 -64.8411 -64.8411
28.46 184.876 0.0 -63.1409 -63.1409
28.47 183.655 0.0 -61.521 -61.521
28.48 181.926 0.0 -60.0886 -60.0886
28.49 179.707 0.0 -58.9334 -58.9334
28.5 177.027 0.0 -58.1147 -58.1147
28.51 173.923 0.0 -57.6611 -57.6611
28.52 170.454 0.0 -57.5682 -57.5682
28.53 166.697 0.0 -57.7922 -57.7922
28.54 162.748 0.0 -58.2711 -58.2711
28.55 158.718 0.0 -58.9175 -58.9175
28.56 154.724 0.0 -59.6355 -59.6355
28.57 150.883 0.0 -60.33 -60.33
28.58 147.301 0.0 -60.9151 -60.9151
28.59 144.061 0.0 -61.3258 -61.3258
28.6 141.213 0.0 -61.5271 -61.5271
28.61 138.77 0.0 -61.5106 -61.5106
28.62 136.697 0.0 -61.301 -61.301
28.63 134.917 0.0 -60.9496 -60.9496
28.64 133.306 0.0 -60.5349 -60.5349
28.65 131.705 0.0 -60.1383 -60.1383
28.66 129.928 0.0 -59.853 -59.853
28.67 127.772 0.0 -59.7604 -59.7604
28.68 125.037 0.0 -59.9235 -59.9235
28.69 121.533 0.0 -60.3772 -60.3772
28.7 117.105 0.0 -61.1267 -61.1267
28.71 111.636 0.0 -62.1402 -62.1402
28.72 105.065 0.0 -63.3552 -63.3552
28.73 97.3894 0.0 -64.6804 -64.6804
28.74 88.6688 0.0 -66.0048 -66.0048
28.75 79.0249 0.0 -67.2079 -67.2079
28.76 68.6347 0.0 -68.1757 -68.1757
28.77 57.7219 0.0 -68.8039 -68.8039
28.78 46.5449 0.0 -69.0199 -69.0199
28.79 35.3819 0.0 -68.7809 -68.7809
28.8 24.5164 0.0 -68.0824 -68.0824
28.81 14.2205 0.0 -66.9695 -66.9695
28.82 4.74141 0.0 -65.5124 -65.5124
28.83 -3.71279 0.0 -63.8152 -63.8152
28.84 -10.9831 0.0 -62.0079 -62.0079
28.85 -16.9678 0.0 -60.2222 -60.2222
28.86 -21.627 0.0 -58.59 -58.59
28.87 -24.9841 0.0 -57.2239 -57.2239
28.88 -27.124 0.0 -56.211 -56.211
28.89 -28.1884 0.0 -55.5976 -55.5976
28.9 -28.3681 0.0 -55.3969 -55.3969
28.91 -27.8938 0.0 -55.5762 -55.5762
28.92 -27.0242 0.0 -56.0688 -56.0688
28.93 -26.0337 0.0 -56.7773 -56.7773
28.94 -25.199 0.0 -57.586 -57.586
28.95 -24.7854 0.0 -58.3736 -58.3736
28.96 -25.0339 0.0 -59.0221 -59.0221
28.97 -26.1486 0.0 -59.4354 -59.4354
28.98 -28.2861 0.0 -59.5389 -59.5389
28.99 -31.5465 0.0 -59.2975 -59.2975
29 -35.9668 0.0 -58.7102 -58.7102
29.01 -41.5176 0.0 -57.8104 -57.8104
29.02 -48.1017 0.0 -56.6633 -56.6633
29.03 -55.5576 0.0 -55.3544 -55.3544
29.04 -63.6651 0.0 -53.9829 -53.9829
29.05 -72.1547 0.0 -52.6433 -52.6433
29.06 -80.7194 0.0 -51.4246 -51.4246
29.07 -89.0292 0.0 -50.3878 -50.3878
29.08 -96.7468 0.0 -49.5712 -49.5712
29.09 -103.544 0.0 -48.976 -48.976
29.1 -109.118 0.0 -48.5731 -48.5731
29.11 -113.206 0.0 -48.3112 -48.3112
29.12 -115.598 0.0 -48.1114 -48.1114
29.13 -116.145 0.0 -47.8906 -47.8906
29.14 -114.769 0.0 -47.5688 -47.5688
29.15 -111.459 0.0 -47.0781 -47.0781
29.16 -106.272 0.0 -46.3723 -46.3723
29.17 -99.3263 0.0 -45.4417 -45.4417
29.18 -90.7933 0.0 -44.3087 -44.3087
29.19 -80.8839 0.0 -43.0311 -43.0311
29.2 -69.8363 0.0 -41.6997 -41.6997
29.21 -57.9028 0.0 -40.4302 -40.4302
29.22 -45.3366 0.0 -39.3394 -39.3394
29.23 -32.3813 0.0 -38.5507 -38.5507
29.24 -19.2627 0.0 -38.1703 -38.1703
29.25 -6.1827 0.0 -38.2743 -38.2743
29.26 6.68199 0.0 -38.906 -38.906
29.27 19.1795 0.0 -40.0575 -40.0575
29.28 31.1793 0.0 -41.6813 -41.6813
29.29 42.5667 0.0 -43.6807 -43.6807
29.3 53.2372 0.0 -45.9282 -45.9282
29.31 63.0898 0.0 -48.2658 -48.2658
29.32 72.0227 0.0 -50.5317 -50.5317
29.33 79.9299 0.0 -52.5699 -52.5699
29.34 86.7007 0.0 -54.2397 -54.2397
29.35 92.2219 0.0 -55.4339 -55.4339
29.36 96.3826 0.0 -56.0956 -56.0956
29.37 99.0819 0.0 -56.2119 -56.2119
29.38 100.237 0.0 -55.8202 -55.8202
29.39 99.7942 0.0 -55.0042 -55.0042
29.4 97.7363 0.0 -53.8803 -53.8803
29.41 94.0919 0.0 -52.5919 -52.5919
29.42 88.9402 0.0 -51.2852 -51.2852
29.43 82.4131 0.0 -50.1011 -50.1011
29.44 74.6936 0.0 -49.1576 -49.1576
29.45 66.0098 0.0 -48.5378 -48.5378
29.46 56.6265 0.0 -48.2755 -48.2755
29.47 46.832 0.0 -48.37 -48.37
29.48 36.9237 0.0 -48.7677 -48.7677
29.49 27.1931 0.0 -49.3801 -49.3801
29.5 17.9094 0.0 -50.0914 -50.0914
29.51 9.30643 0.0 -50.7784 -50.7784
29.52 1.57095 0.0 -51.318 -51.318
29.53 -5.16517 0.0 -51.6078 -51.6078
29.54 -10.8286 0.0 -51.5774 -51.5774
29.55 -15.4041 0.0 -51.1989 -51.1989
29.56 -18.9294 0.0 -50.4936 -50.4936
29.57 -21.4875 0.0 -49.5255 -49.5255
29.58 -23.195 0.0 -48.402 -48.402
29.59 -24.1897 0.0 -47.2613 -47.2613
29.6 -24.6175 0.0 -46.2525 -46.2525
29.61 -24.6195 0.0 -45.5295 -45.5295
29.62 -24.3216 0.0 -45.2234 -45.2234
29.63 -23.8261 0.0 -45.4329 -45.4329
29.64 -23.2072 0.0 -46.2098 -46.2098
29.65 -22.5089 0.0 -47.5511 -47.5511
29.66 -21.7474 0.0 -49.3966 -49.3966
29.67 -20.9149 0.0 -51.6331 -51.6331
29.68 -19.987 0.0 -54.098 -54.098
29.69 -18.9304 0.0 -56.6016 -56.6016
29.7 -17.7109 0.0 -58.9401 -58.9401
29.71 -16.3012 0.0 -60.9098 -60.9098
29.72 -14.6873 0.0 -62.3347 -62.3347
29.73 -12.8717 0.0 -63.0753 -63.0753
29.74 -10.8757 0.0 -63.0453 -63.0453
29.75 -8.73757 0.0 -62.2164 -62.2164
29.76 -6.50955 0.0 -60.6255 -60.6255
29.77 -4.25209 0.0 -58.3639 -58.3639
29.78 -2.02708 0.0 -55.5719 -55.5719
29.79 0.109546 0.0 -52.4215 -52.4215
29.8 2.11501 0.0 -49.104 -49.104
29.81 3.96582 0.0 -45.8078 -45.8078
29.82 5.66234 0.0 -42.7013 -42.7013
29.83 7.2311 0.0 -39.9181 -39.9181
29.84 8.72476 0.0 -37.5478 -37.5478
29.85 10.2196 0.0 -35.6276 -35.6276
29.86 11.8104 0.0 -34.1394 -34.1394
29.87 13.6042 0.0 -33.0232 -33.0232
29.88 15.7112 0.0 -32.1752 -32.1752
29.89 18.2362 0.0 -31.4722 -31.4722
29.9 21.2689 0.0 -30.7789 -30.7789
29.91 24.8753 0.0 -29.9673 -29.9673
29.92 29.0894 0.0 -28.9334 -28.9334
29.93 33.9068 0.0 -27.6048 -27.6048
29.94 39.2804 0.0 -25.9504 -25.9504
29.95 45.1178 0.0 -23.9828 -23.9828
29.96 51.2809 0.0 -21.7589 -21.7589
29.97 57.5881 0.0 -19.3661 -19.3661
29.98 63.8188 0.0 -16.9188 -16.9188
29.99 69.719 0.0 -14.544 -14.544
30 75.0102 0.0 -12.3642 -12.3642
30.01 79.3987 0.0 -10.4817 -10.4817
30.02 82.5865 0.0 -8.97253 -8.97253
30.03 84.2838 0.0 -7.8758 -7.8758
30.04 84.221 0.0 -7.186 -7.186
30.05 82.1618 0.0 -6.85683 -6.85683
30.06 77.9156 0.0 -6.80558 -6.80558
30.07 71.3487 0.0 -6.92168 -6.92168
30.08 62.3948 0.0 -7.07879 -7.07879
30.09 51.0628 0.0 -7.14276 -7.14276
30.1 37.4421 0.0 -6.99511 -6.99511
30.11 21.7052 0.0 -6.53917 -6.53917
30.12 4.10567 0.0 -5.70667 -5.70667
30.13 -15.0265 0.0 -4.46948 -4.46948
30.14 -35.2947 0.0 -2.84628 -2.84628
30.15 -56.2485 0.0 -0.887505 -0.887505
30.16 -77.4002 0.0 1.32323 1.32323
30.17 -98.2443 0.0 3.67734 3.67734
30.18 -118.278 0.0 6.0524 6.0524
30.19 -137.025 0.0 8.33198 8.33198
30.2 -154.053 0.0 10.405 10.405
30.21 -168.997 0.0 12.1894 12.1894
30.22 -181.575 0.0 13.6215 13.6215
30.23 -191.6 0.0 14.683 14.683
30.24 -198.986 0.0 15.3854 15.3854
30.25 -203.755 0.0 15.7702 15.7702
30.26 -206.029 0.0 15.906 15.906
30.27 -206.023 0.0 15.8783 15.8783
30.28 -204.033 0.0 15.7765 15.7765
30.29 -200.417 0.0 15.6922 15.6922
30.3 -195.574 0.0 15.7024 15.7024
30.31 -189.926 0.0 15.8691 15.8691
30.32 -183.892 0.0 16.2274 16.2274
30.33 -177.873 0.0 16.7911 16.7911
30.34 -172.23 0.0 17.5437 17.5437
30.35 -167.271 0.0 18.4583 18.4583
30.36 -163.245 0.0 19.4886 19.4886
30.37 -160.328 0.0 20.579 20.579
30.38 -158.63 0.0 21.6775 21.6775
30.39 -158.19 0.0 22.7386 22.7386
30.4 -158.985 0.0 23.7302 23.7302
30.41 -160.938 0.0 24.6378 24.6378
30.42 -163.922 0.0 25.4626 25.4626
30.43 -167.772 0.0 26.2251 26.2251
30.44 -172.295 0.0 26.9631 26.9631
30.45 -177.274 0.0 27.7228 27.7228
30.46 -182.475 0.0 28.5571 28.5571
30.47 -187.654 0.0 29.5145 29.5145
30.48 -192.559 0.0 30.6404 30.6404
30.49 -196.933 0.0 31.9677 31.9677
30.5 -200.515 0.0 33.5137 33.5137
30.51 -203.047 0.0 35.2761 35.2761
30.52 -204.276 0.0 37.2375 37.2375
30.53 -203.96 0.0 39.3662 39.3662
30.54 -201.874 0.0 41.6129 41.6129
30.55 -197.82 0.0 43.9207 43.9207
30.56 -191.637 0.0 46.2302 46.2302
30.57 -183.214 0.0 48.4811 48.4811
30.58 -172.497 0.0 50.6179 50.6179
30.59 -159.501 0.0 52.5879 52.5879
30.6 -144.318 0.0 54.3545 54.3545
30.61 -127.119 0.0 55.8891 55.8891
30.62 -108.159 0.0 57.1728 57.1728
30.63 -87.7661 0.0 58.1951 58.1951
30.64 -66.338 0.0 58.967 58.967
30.65 -44.324 0.0 59.494 59.494
30.66 -22.2079 0.0 59.7939 59.7939
30.67 -0.485537 0.0 59.8915 59.8915
30.68 20.3593 0.0 59.8137 59.8137
30.69 39.88 0.0 59.589 59.589
30.7 57.6908 0.0 59.2572 59.2572
30.71 73.4883 0.0 58.8537 58.8537
30.72 87.068 0.0 58.428 58.428
30.73 98.3356 0.0 58.0244 58.0244
30.74 107.313 0.0 57.6894 57.6894
30.75 114.133 0.0 57.4708 57.4708
30.76 119.036 0.0 57.4154 57.4154
30.77 122.347 0.0 57.5624 57.5624
30.78 124.46 0.0 57.9393 57.9393
30.79 125.81 0.0 58.566 58.566
30.8 126.846 0.0 59.441 59.441
30.81 128.001 0.0 60.5481 60.5481
30.82 129.665 0.0 61.8489 61.8489
30.83 132.161 0.0 63.288 63.288
30.84 135.723 0.0 64.794 64.794
30.85 140.483 0.0 66.2796 66.2796
30.86 146.464 0.0 67.6552 67.6552
30.87 153.575 0.0 68.8219 68.8219
30.88 161.623 0.0 69.6933 69.6933
30.89 170.32 0.0 70.1961 70.1961
30.9 179.305 0.0 70.2679 70.2679
30.91 188.165 0.0 69.8781 69.8781
30.92 196.459 0.0 69.0191 69.0191
30.93 203.746 0.0 67.7109 67.7109
30.94 209.611 0.0 66.0008 66.0008
30.95 213.688 0.0 63.9606 63.9606
30.96 215.683 0.0 61.6771 61.6771
30.97 215.387 0.0 59.2541 59.2541
30.98 212.691 0.0 56.7966 56.7966
30.99 207.592 0.0 54.4083 54.4083
31 200.188 0.0 52.1831 52.1831
31.01 190.679 0.0 50.1971 50.1971
31.02 179.352 0.0 48.5153 48.5153
31.03 166.567 0.0 47.172 47.172
31.04 152.741 0.0 46.1825 46.1825
31.05 138.322 0.0 45.5458 45.5458
31.06 123.775 0.0 45.2304 45.2304
31.07 109.551 0.0 45.2038 45.2038
31.08 96.0754 0.0 45.4106 45.4106
31.09 83.7223 0.0 45.7967 45.7967
31.1 72.8026 0.0 46.3024 46.3024
31.11 63.5511 0.0 46.8669 46.8669
31.12 56.1185 0.0 47.4295 47.4295
31.13 50.5675 0.0 47.9395 47.9395
31.14 46.8741 0.0 48.3409 48.3409
31.15 44.9321 0.0 48.5879 48.5879
31.16 44.5618 0.0 48.6392 48.6392
31.17 45.5216 0.0 48.4514 48.4514
31.18 47.5224 0.0 47.9936 47.9936
31.19 50.2435 0.0 47.2355 47.2355
31.2 53.3494 0.0 46.1556 46.1556
31.21 56.5063 0.0 44.7457 44.7457
31.22 59.3982 0.0 43.0048 43.0048
31.23 61.7406 0.0 40.9554 40.9554
31.24 63.2931 0.0 38.6309 38.6309
31.25 63.8678 0.0 36.0872 36.0872
31.26 63.3359 0.0 33.3981 33.3981
31.27 61.6301 0.0 30.6529 30.6529
31.28 58.7442 0.0 27.9528 27.9528
31.29 54.7296 0.0 25.4064 25.4064
31.3 49.6894 0.0 23.1186 23.1186
31.31 43.7699 0.0 21.1841 21.1841
31.32 37.1506 0.0 19.6824 19.6824
31.33 30.034 0.0 18.668 18.668
31.34 22.6339 0.0 18.1581 18.1581
31.35 15.1653 0.0 18.1427 18.1427
31.36 7.83448 0.0 18.5715 18.5715
31.37 0.830791 0.0 19.3592 19.3592
31.38 -5.68003 0.0 20.399 20.399
31.39 -11.5604 0.0 21.5544 21.5544
31.4 -16.7033 0.0 22.6863 22.6863
31.41 -21.0334 0.0 23.6574 23.6574
31.42 -24.5058 0.0 24.3438 24.3438
31.43 -27.1033 0.0 24.6473 24.6473
31.44 -28.8336 0.0 24.5026 24.5026
31.45 -29.7246 0.0 23.8856 23.8856
31.46 -29.8203 0.0 22.8143 22.8143
31.47 -29.1765 0.0 21.3465 21.3465
31.48 -27.8573 0.0 19.5753 19.5753
31.49 -25.9318 0.0 17.6208 17.6208
31.5 -23.4718 0.0 15.6188 15.6188
31.51 -20.5509 0.0 13.7039 13.7039
31.52 -17.2433 0.0 12.0043 12.0043
31.53 -13.6244 0.0 10.6244 10.6244
31.54 -9.77073 0.0 9.63873 9.63873
31.55 -5.76109 0.0 9.08109 9.08109
31.56 -1.67661 0.0 8.95061 8.95061
31.57 2.39909 0.0 9.20191 9.20191
31.58 6.38051 0.0 9.76249 9.76249
31.59 10.1816 0.0 10.5284 10.5284
31.6 13.7182 0.0 11.3888 11.3888
31.61 16.9108 0.0 12.2272 12.2272
31.62 19.6883 0.0 12.9347 12.9347
31.63 21.9925 0.0 13.4245 13.4245
31.64 23.782 0.0 13.636 13.636
31.65 25.0363 0.0 13.5437 13.5437
31.66 25.7592 0.0 13.1458 13.1458
31.67 25.9813 0.0 12.4787 12.4787
31.68 25.7605 0.0 11.6035 11.6035
31.69 25.1816 0.0 10.5974 10.5974
31.7 24.3538 0.0 9.54525 9.54525
31.71 23.4059 0.0 8.52913 8.52913
31.72 22.4807 0.0 7.6253 7.6253
31.73 21.7272 0.0 6.89284 6.89284
31.74 21.2917 0.0 6.36231 6.36231
31.75 21.309 0.0 6.05399 6.05399
31.76 21.893 0.0 5.95304 5.95304
31.77 23.1279 0.0 6.03513 6.03513
31.78 25.0613 0.0 6.25572 6.25572
31.79 27.6984 0.0 6.57259 6.57259
31.8 30.999 0.0 6.93605 6.93605
31.81 34.8764 0.0 7.30956 7.30956
31.82 39.2004 0.0 7.66063 7.66063
31.83 43.801 0.0 7.97798 7.97798
31.84 48.4768 0.0 8.26222 8.26222
31.85 53.0036 0.0 8.52244 8.52244
31.86 57.1457 0.0 8.78026 8.78026
31.87 60.6679 0.0 9.05907 9.05907
31.88 63.3469 0.0 9.37805 9.37805
31.89 64.9831 0.0 9.7509 9.7509
31.9 65.4102 0.0 10.1798 10.1798
31.91 64.5038 0.0 10.6492 10.6492
31.92 62.1866 0.0 11.1364 11.1364
31.93 58.432 0.0 11.599 11.599
31.94 53.264 0.0 11.998 11.998
31.95 46.7552 0.0 12.2868 12.2868
31.96 39.0218 0.0 12.4332 12.4332
31.97 30.2172 0.0 12.4108 12.4108
31.98 20.524 0.0 12.218 12.218
31.99 10.1449 0.0 11.8801 11.8801
32 -0.706158 0.0 11.4422 11.4422
32.01 -11.8128 0.0 10.9748 10.9748
32.02 -22.9638 0.0 10.5588 10.5588
32.03 -33.9597 0.0 10.2957 10.2957
32.04 -44.6182 0.0 10.2782 10.2782
32.05 -54.7769 0.0 10.5949 10.5949
32.06 -64.296 0.0 11.3 11.3
32.07 -73.0586 0.0 12.4346 12.4346
32.08 -80.9703 0.0 13.9913 13.9913
32.09 -87.9579 0.0 15.9329 15.9329
32.1 -93.968 0.0 18.178 18.178
32.11 -98.9651 0.0 20.6191 20.6191
32.12 -102.93 0.0 23.1259 23.1259
32.13 -105.858 0.0 25.5642 25.5642
32.14 -107.759 0.0 27.7994 27.7994
32.15 -108.656 0.0 29.7172 29.7172
32.16 -108.584 0.0 31.2331 31.2331
32.17 -107.59 0.0 32.3054 32.3054
32.18 -105.734 0.0 32.9401 32.9401
32.19 -103.085 0.0 33.1825 33.1825
32.2 -99.7199 0.0 33.1299 33.1299
32.21 -95.7253 0.0 32.9013 32.9013
32.22 -91.1897 0.0 32.6477 32.6477
32.23 -86.2031 0.0 32.5161 32.5161
32.24 -80.8528 0.0 32.6488 32.6488
32.25 -75.2199 0.0 33.1569 33.1569
32.26 -69.3758 0.0 34.1158 34.1158
32.27 -63.38 0.0 35.555 35.555
32.28 -57.2776 0.0 37.4436 37.4436
32.29 -51.0989 0.0 39.7109 39.7109
32.3 -44.8603 0.0 42.2313 42.2313
32.31 -38.5654 0.0 44.8594 44.8594
32.32 -32.2085 0.0 47.4245 47.4245
32.33 -25.7787 0.0 49.7607 49.7607
32.34 -19.2639 0.0 51.7139 51.7139
32.35 -12.6567 0.0 53.1727 53.1727
32.36 -5.95796 0.0 54.067 54.067
32.37 0.818394 0.0 54.3736 54.3736
32.38 7.64281 0.0 54.1342 54.1342
32.39 14.4684 0.0 53.4306 53.4306
32.4 21.2309 0.0 52.3951 52.3951
32.41 27.8504 0.0 51.1806 51.1806
32.42 34.2341 0.0 49.9599 49.9599
32.43 40.2806 0.0 48.8964 48.8964
32.44 45.8851 0.0 48.1309 48.1309
32.45 50.9452 0.0 47.7688 47.7688
32.46 55.3656 0.0 47.8704 47.8704
32.47 59.0639 0.0 48.4481 48.4481
32.48 61.974 0.0 49.456 49.456
32.49 64.0491 0.0 50.8119 50.8119
32.5 65.263 0.0 52.395 52.395
32.51 65.6103 0.0 54.0667 54.0667
32.52 65.1048 0.0 55.6852 55.6852
32.53 63.7774 0.0 57.1166 57.1166
32.54 61.6729 0.0 58.2541 58.2541
32.55 58.847 0.0 59.026 59.026
32.56 55.363 0.0 59.404 59.404
32.57 51.2897 0.0 59.4063 59.4063
32.58 46.6991 0.0 59.0819 59.0819
32.59 41.666 0.0 58.523 58.523
32.6 36.2684 0.0 57.8336 57.8336
32.61 30.5881 0.0 57.1259 57.1259
32.62 24.7125 0.0 56.5075 56.5075
32.63 18.7364 0.0 56.0606 56.0606
32.64 12.7628 0.0 55.8432 55.8432
32.65 6.90371 0.0 55.8673 55.8673
32.66 1.27926 0.0 56.1177 56.1177
32.67 -3.98501 0.0 56.531 56.531
32.68 -8.76237 0.0 57.0184 57.0184
32.69 -12.931 0.0 57.476 57.476
32.7 -16.3814 0.0 57.7874 57.7874
32.71 -19.0258 0.0 57.8438 57.8438
32.72 -20.8064 0.0 57.5564 57.5564
32.73 -21.7053 0.0 56.8593 56.8593
32.74 -21.7519 0.0 55.7219 55.7219
32.75 -21.0286 0.0 54.1476 54.1476
32.76 -19.6746 0.0 52.1796 52.1796
32.77 -17.8855 0.0 49.8805 49.8805
32.78 -15.9091 0.0 47.3381 47.3381
32.79 -14.0381 0.0 44.6481 44.6481
32.8 -12.5985 0.0 41.9035 41.9035
32.81 -11.9344 0.0 39.1894 39.1894
32.82 -12.3908 0.0 36.5718 36.5718
32.83 -14.2947 0.0 34.0867 34.0867
32.84 -17.935 0.0 31.757 31.757
32.85 -23.5439 0.0 29.5749 29.5749
32.86 -31.2799 0.0 27.5139 27.5139
32.87 -41.2138 0.0 25.5518 25.5518
32.88 -53.3189 0.0 23.6479 23.6479
32.89 -67.4657 0.0 21.7887 21.7887
32.9 -83.4224 0.0 19.9564 19.9564
32.91 -100.86 0.0 18.1775 18.1775
32.92 -119.365 0.0 16.477 16.477
32.93 -138.45 0.0 14.8994 14.8994
32.94 -157.58 0.0 13.5235 13.5235
32.95 -176.186 0.0 12.4016 12.4016
32.96 -193.696 0.0 11.6109 11.6109
32.97 -209.556 0.0 11.1809 11.1809
32.98 -223.252 0.0 11.1401 11.1401
32.99 -234.333 0.0 11.4592 11.4592
33 -242.428 0.0 12.0934 12.0934
33.01 -247.261 0.0 12.9463 12.9463
33.02 -248.66 0.0 13.8968 13.8968
33.03 -246.561 0.0 14.799 14.799
33.04 -241.012 0.0 15.5071 15.5071
33.05 -232.165 0.0 15.8715 15.8715
33.06 -220.271 0.0 15.7751 15.7751
33.07 -205.665 0.0 15.1247 15.1247
33.08 -188.753 0.0 13.8922 13.8922
33.09 -169.999 0.0 12.0788 12.0788
33.1 -149.901 0.0 9.75511 9.75511
33.11 -128.98 0.0 7.04608 7.04608
33.12 -107.758 0.0 4.09139 4.09139
33.13 -86.7456 0.0 1.08055 1.08055
33.14 -66.4234 0.0 -1.81963 -1.81963
33.15 -47.2334 0.0 -4.42756 -4.42756
33.16 -29.5668 0.0 -6.61815 -6.61815
33.17 -13.7563 0.0 -8.29373 -8.29373
33.18 -0.0703325 0.0 -9.41867 -9.41867
33.19 11.2897 0.0 -10.0247 -10.0247
33.2 20.1912 0.0 -10.1852 -10.1852
33.21 26.5697 0.0 -10.0387 -10.0387
33.22 30.4263 0.0 -9.74133 -9.74133
33.23 31.8247 0.0 -9.47368 -9.47368
33.24 30.8859 0.0 -9.40592 -9.40592
33.25 27.7833 0.0 -9.68132 -9.68132
33.26 22.7361 0.0 -10.3981 -10.3981
33.27 16.0029 0.0 -11.6039 -11.6039
33.28 7.87454 0.0 -13.2705 -13.2705
33.29 -1.33265 0.0 -15.3204 -15.3204
33.3 -11.2845 0.0 -17.6055 -17.6055
33.31 -21.6361 0.0 -19.9519 -19.9519
33.32 -32.0393 0.0 -22.1477 -22.1477
33.33 -42.1497 0.0 -23.9953 -23.9953
33.34 -51.6337 0.0 -25.3083 -25.3083
33.35 -60.1757 0.0 -25.9523 -25.9523
33.36 -67.4844 0.0 -25.8586 -25.8586
33.37 -73.2992 0.0 -25.0168 -25.0168
33.38 -77.3954 0.0 -23.5046 -23.5046
33.39 -79.5899 0.0 -21.4611 -21.4611
33.4 -79.7445 0.0 -19.0925 -19.0925
33.41 -77.7698 0.0 -16.6382 -16.6382
33.42 -73.6268 0.0 -14.3582 -14.3582
33.43 -67.3275 0.0 -12.4955 -12.4955
33.44 -58.9349 0.0 -11.2771 -11.2771
33.45 -48.5603 0.0 -10.8577 -10.8577
33.46 -36.3602 0.0 -11.3378 -11.3378
33.47 -22.5314 0.0 -12.7256 -12.7256
33.48 -7.30493 0.0 -14.9671 -14.9671
33.49 9.06109 0.0 -17.9191 -17.9191
33.5 26.2895 0.0 -21.3985 -21.3985
33.51 44.0923 0.0 -25.1773 -25.1773
33.52 62.1795 0.0 -29.0115 -29.0115
33.53 80.2673 0.0 -32.6863 -32.6863
33.54 98.0859 0.0 -35.9979 -35.9979
33.55 115.386 0.0 -38.8184 -38.8184
33.56 131.946 0.0 -41.0683 -41.0683
33.57 147.574 0.0 -42.7515 -42.7515
33.58 162.109 0.0 -43.925 -43.925
33.59 175.427 0.0 -44.716 -44.716
33.6 187.435 0.0 -45.2837 -45.2837
33.61 198.069 0.0 -45.8009 -45.8009
33.62 207.293 0.0 -46.4537 -46.4537
33.63 215.09 0.0 -47.3883 -47.3883
33.64 221.462 0.0 -48.7249 -48.7249
33.65 226.418 0.0 -50.509 -50.509
33.66 229.974 0.0 -52.744 -52.744
33.67 232.146 0.0 -55.3613 -55.3613
33.68 232.948 0.0 -58.2463 -58.2463
33.69 232.389 0.0 -61.245 -61.245
33.7 230.472 0.0 -64.1845 -64.1845
33.71 227.199 0.0 -66.8913 -66.8913
33.72 222.569 0.0 -69.2184 -69.2184
33.73 216.587 0.0 -71.0508 -71.0508
33.74 209.264 0.0 -72.3354 -72.3354
33.75 200.631 0.0 -73.0667 -73.0667
33.76 190.735 0.0 -73.3081 -73.3081
33.77 179.654 0.0 -73.1715 -73.1715
33.78 167.497 0.0 -72.802 -72.802
33.79 154.406 0.0 -72.379 -72.379
33.8 140.561 0.0 -72.0646 -72.0646
33.81 126.175 0.0 -72.0303 -72.0303
33.82 111.496 0.0 -72.3802 -72.3802
33.83 96.7953 0.0 -73.2003 -73.2003
33.84 82.363 0.0 -74.495 -74.495
33.85 68.4979 0.0 -76.2309 -76.2309
33.86 55.4957 0.0 -78.3177 -78.3177
33.87 43.6378 0.0 -80.6168 -80.6168
33.88 33.1793 0.0 -82.9803 -82.9803
33.89 24.3376 0.0 -85.2406 -85.2406
33.9 17.2828 0.0 -87.2598 -87.2598
33.91 12.1301 0.0 -88.9221 -88.9221
33.92 8.93405 0.0 -90.159 -90.159
33.93 7.68646 0.0 -90.9585 -90.9585
33.94 8.3167 0.0 -91.3607 -91.3607
33.95 10.6952 0.0 -91.4542 -91.4542
33.96 14.6395 0.0 -91.3655 -91.3655
33.97 19.9231 0.0 -91.2451 -91.2451
33.98 26.2849 0.0 -91.2509 -91.2509
33.99 33.4414 0.0 -91.5144 -91.5144
34 41.0979 0.0 -92.1469 -92.1469
34.01 48.9601 0.0 -93.2031 -93.2031
34.02 56.7447 0.0 -94.6837 -94.6837
34.03 64.1883 0.0 -96.5393 -96.5393
34.04 71.0548 0.0 -98.6568 -98.6568
34.05 77.1408 0.0 -100.892 -100.892
34.06 82.2782 0.0 -103.064 -103.064
34.07 86.3357 0.0 -104.997 -104.997
34.08 89.2181 0.0 -106.518 -106.518
34.09 90.8644 0.0 -107.488 -107.488
34.1 91.2448 0.0 -107.82 -107.82
34.11 90.3578 0.0 -107.478 -107.478
34.12 88.2264 0.0 -106.491 -106.491
34.13 84.8956 0.0 -104.942 -104.942
34.14 80.4299 0.0 -102.965 -102.965
34.15 74.9114 0.0 -100.726 -100.726
34.16 68.4384 0.0 -98.4044 -98.4044
34.17 61.1252 0.0 -96.1722 -96.1722
34.18 53.1009 0.0 -94.1839 -94.1839
34.19 44.5087 0.0 -92.5437 -92.5437
34.2 35.5044 0.0 -91.3084 -91.3084
34.21 26.2539 0.0 -90.4749 -90.4749
34.22 16.9296 0.0 -89.9876 -89.9876
34.23 7.70575 0.0 -89.7358 -89.7358
34.24 -1.24798 0.0 -89.587 -89.587
34.25 -9.77308 0.0 -89.3799 -89.3799
34.26 -17.73 0.0 -88.963 -88.963
34.27 -25.0057 0.0 -88.2163 -88.2163
34.28 -31.5204 0.0 -87.0456 -87.0456
34.29 -37.2333 0.0 -85.4197 -85.4197
34.3 -42.1464 0.0 -83.3606 -83.3606
34.31 -46.3052 0.0 -80.9528 -80.9528
34.32 -49.7972 0.0 -78.3298 -78.3298
34.33 -52.7467 0.0 -75.6573 -75.6573
34.34 -55.307 0.0 -73.125 -73.125
34.35 -57.65 0.0 -70.916 -70.916
34.36 -59.9532 0.0 -69.1938 -69.1938
34.37 -62.3864 0.0 -68.0696 -68.0696
34.38 -65.0972 0.0 -67.6088 -67.6088
34.39 -68.1983 0.0 -67.7987 -67.7987
34.4 -71.756 0.0 -68.571 -68.571
34.41 -75.7829 0.0 -69.7831 -69.7831
34.42 -80.2326 0.0 -71.2524 -71.2524
34.43 -85.0003 0.0 -72.7597 -72.7597
34.44 -89.9274 0.0 -74.0746 -74.0746
34.45 -94.8097 0.0 -74.9873 -74.9873
34.46 -99.4107 0.0 -75.3113 -75.3113
34.47 -103.477 0.0 -74.9228 -74.9228
34.48 -106.757 0.0 -73.7562 -73.7562
34.49 -109.016 0.0 -71.8207 -71.8207
34.5 -110.059 0.0 -69.1969 -69.1969
34.51 -109.741 0.0 -66.0261 -66.0261
34.52 -107.981 0.0 -62.4935 -62.4935
34.53 -104.773 0.0 -58.8198 -58.8198
34.54 -100.184 0.0 -55.2213 -55.2213
34.55 -94.3536 0.0 -51.9134 -51.9134
34.56 -87.4898 0.0 -49.0542 -49.0542
34.57 -79.8535 0.0 -46.7735 -46.7735
34.58 -71.7447 0.0 -45.1163 -45.1163
34.59 -63.4841 0.0 -44.0819 -44.0819
34.6 -55.3937 0.0 -43.5923 -43.5923
34.61 -47.7778 0.0 -43.5202 -43.5202
34.62 -40.9047 0.0 -43.7073 -43.7073
34.63 -34.9916 0.0 -43.9664 -43.9664
34.64 -30.1928 0.0 -44.1202 -44.1202
34.65 -26.5927 0.0 -43.9983 -43.9983
34.66 -24.2025 0.0 -43.4785 -43.4785
34.67 -22.963 0.0 -42.474 -42.474
34.68 -22.7498 0.0 -40.9612 -40.9612
34.69 -23.3844 0.0 -38.9646 -38.9646
34.7 -24.6461 0.0 -36.5569 -36.5569
34.71 -26.2874 0.0 -33.8506 -33.8506
34.72 -28.0489 0.0 -30.9851 -30.9851
34.73 -29.6745 0.0 -28.0995 -28.0995
34.74 -30.9252 0.0 -25.3318 -25.3318
34.75 -31.5912 0.0 -22.7938 -22.7938
34.76 -31.5007 0.0 -20.5623 -20.5623
34.77 -30.5262 0.0 -18.6738 -18.6738
34.78 -28.5879 0.0 -17.1241 -17.1241
34.79 -25.6537 0.0 -15.8663 -15.8663
34.8 -21.7374 0.0 -14.8236 -14.8236
34.81 -16.8941 0.0 -13.8959 -13.8959
34.82 -11.2143 0.0 -12.9807 -12.9807
34.83 -4.81742 0.0 -11.9746 -11.9746
34.84 2.15545 0.0 -10.7994 -10.7994
34.85 9.54859 0.0 -9.40359 -9.40359
34.86 17.198 0.0 -7.76504 -7.76504
34.87 24.9373 0.0 -5.91228 -5.91228
34.88 32.602 0.0 -3.89495 -3.89495
34.89 40.0335 0.0 -1.81154 -1.81154
34.9 47.0822 0.0 0.243801 0.243801
34.91 53.6088 0.0 2.14322 2.14322
34.92 59.4862 0.0 3.78077 3.78077
34.93 64.6007 0.0 5.05735 5.05735
34.94 68.8521 0.0 5.90094 5.90094
34.95 72.1551 0.0 6.27287 6.27287
34.96 74.4399 0.0 6.16805 6.16805
34.97 75.6528 0.0 5.6222 5.6222
34.98 75.7571 0.0 4.70093 4.70093
34.99 74.7341 0.0 3.49693 3.49693
35 72.5839 0.0 2.12312 2.12312
35.01 69.3259 0.0 0.698081 0.698081
35.02 64.9993 0.0 -0.661275 -0.661275
35.03 59.6627 0.0 -1.84568 -1.84568
35.04 53.394 0.0 -2.76903 -2.76903
35.05 46.2894 0.0 -3.35843 -3.35843
35.06 38.4618 0.0 -3.57881 -3.57881
35.07 30.0391 0.0 -3.40307 -3.40307
35.08 21.1618 0.0 -2.84682 -2.84682
35.09 11.9809 0.0 -1.92486 -1.92486
35.1 2.65432 0.0 -0.678317 -0.678317
35.11 -6.6553 0.0 0.842303 0.842303
35.12 -15.7843 0.0 2.59226 2.59226
35.13 -24.5707 0.0 4.5117 4.5117
35.14 -32.8579 0.0 6.55688 6.55688
35.15 -40.4972 0.0 8.66722 8.66722
35.16 -47.3514 0.0 10.8024 10.8024
35.17 -53.2975 0.0 12.9065 12.9065
35.18 -58.2292 0.0 14.9322 14.9322
35.19 -62.0602 0.0 16.8262 16.8262
35.2 -64.726 0.0 18.534 18.534
35.21 -66.1858 0.0 19.9968 19.9968
35.22 -66.4246 0.0 21.1646 21.1646
35.23 -65.4537 0.0 21.9837 21.9837
35.24 -63.3114 0.0 22.4154 22.4154
35.25 -60.063 0.0 22.433 22.433
35.26 -55.7999 0.0 22.0239 22.0239
35.27 -50.638 0.0 21.208 21.208
35.28 -44.716 0.0 20.022 20.022
35.29 -38.1921 0.0 18.5331 18.5331
35.3 -31.2414 0.0 16.8224 16.8224
35.31 -24.0519 0.0 15.0009 15.0009
35.32 -16.8205 0.0 13.1825 13.1825
35.33 -9.74925 0.0 11.4882 11.4882
35.34 -3.04042 0.0 10.0294 10.0294
35.35 3.10729 0.0 8.90671 8.90671
35.36 8.50329 0.0 8.18871 8.18871
35.37 12.9692 0.0 7.9208 7.9208
35.38 16.343 0.0 8.11002 8.11002
35.39 18.4828 0.0 8.7272 8.7272
35.4 19.2708 0.0 9.70921 9.70921
35.41 18.6166 0.0 10.9714 10.9714
35.42 16.4606 0.0 12.4004 12.4004
35.43 12.7766 0.0 13.8824 13.8824
35.44 7.57467 0.0 15.3003 15.3003
35.45 0.902224 0.0 16.5488 16.5488
35.46 -7.15466 0.0 17.5517 17.5517
35.47 -16.4715 0.0 18.2485 18.2485
35.48 -26.887 0.0 18.63 18.63
35.49 -38.2053 0.0 18.7033 18.7033
35.5 -50.2005 0.0 18.5295 18.5295
35.51 -62.6222 0.0 18.1742 18.1742
35.52 -75.2026 0.0 17.7276 17.7276
35.53 -87.6648 0.0 17.3018 17.3018
35.54 -99.7316 0.0 16.9886 16.9886
35.55 -111.136 0.0 16.8873 16.8873
35.56 -121.631 0.0 17.0565 17.0565
35.57 -131 0.0 17.5495 17.5495
35.58 -139.061 0.0 18.3716 18.3716
35.59 -145.68 0.0 19.513 19.513
35.6 -150.773 0.0 20.9273 20.9273
35.61 -154.309 0.0 22.5453 22.5453
35.62 -156.31 0.0 24.2884 24.2884
35.63 -156.85 0.0 26.0651 26.0651
35.64 -156.048 0.0 27.7845 27.7845
35.65 -154.065 0.0 29.3687 29.3687
35.66 -151.088 0.0 30.7464 30.7464
35.67 -147.329 0.0 31.8739 31.8739
35.68 -143.004 0.0 32.7273 32.7273
35.69 -138.33 0.0 33.2983 33.2983
35.7 -133.509 0.0 33.6044 33.6044
35.71 -128.721 0.0 33.6775 33.6775
35.72 -124.116 0.0 33.5641 33.5641
35.73 -119.807 0.0 33.3119 33.3119
35.74 -115.868 0.0 32.9811 32.9811
35.75 -112.334 0.0 32.6199 32.6199
35.76 -109.199 0.0 32.2824 32.2824
35.77 -106.424 0.0 32.0121 32.0121
35.78 -103.937 0.0 31.8452 31.8452
35.79 -101.643 0.0 31.8154 31.8154
35.8 -99.4301 0.0 31.9491 31.9491
35.81 -97.1748 0.0 32.2708 32.2708
35.82 -94.7516 0.0 32.7986 32.7986
35.83 -92.0377 0.0 33.5517 33.5517
35.84 -88.9186 0.0 34.5386 34.5386
35.85 -85.2927 0.0 35.7747 35.7747
35.86 -81.0737 0.0 37.2587 37.2587
35.87 -76.193 0.0 38.983 38.983
35.88 -70.6001 0.0 40.9331 40.9331
35.89 -64.2626 0.0 43.0746 43.0746
35.9 -57.1655 0.0 45.3665 45.3665
35.91 -49.3098 0.0 47.7448 47.7448
35.92 -40.7116 0.0 50.1416 50.1416
35.93 -31.4002 0.0 52.4842 52.4842
35.94 -21.4175 0.0 54.6805 54.6805
35.95 -10.8164 0.0 56.6584 56.6584
35.96 0.339508 0.0 58.3415 58.3415
35.97 11.9768 0.0 59.6832 59.6832
35.98 24.0123 0.0 60.6337 60.6337
35.99 36.3543 0.0 61.1947 61.1947
36 48.9021 0.0 61.3719 61.3719
36.01 61.5478 0.0 61.2062 61.2062
36.02 74.1767 0.0 60.7633 60.7633
36.03 86.6693 0.0 60.1117 60.1117
36.04 98.9029 0.0 59.3461 59.3461
36.05 110.754 0.0 58.5472 58.5472
36.06 122.1 0.0 57.799 57.799
36.07 132.823 0.0 57.1656 57.1656
36.08 142.813 0.0 56.6972 56.6972
36.09 151.966 0.0 56.407 56.407
36.1 160.192 0.0 56.2946 56.2946
36.11 167.414 0.0 56.3367 56.3367
36.12 173.568 0.0 56.4749 56.4749
36.13 178.605 0.0 56.6556 56.6556
36.14 182.493 0.0 56.8063 56.8063
36.15 185.211 0.0 56.8672 56.8672
36.16 186.754 0.0 56.7843 56.7843
36.17 187.127 0.0 56.5247 56.5247
36.18 186.347 0.0 56.0746 56.0746
36.19 184.438 0.0 55.449 55.449
36.2 181.429 0.0 54.6792 54.6792
36.21 177.354 0.0 53.819 53.819
36.22 172.251 0.0 52.9303 52.9303
36.23 166.158 0.0 52.0861 52.0861
36.24 159.116 0.0 51.3379 51.3379
36.25 151.168 0.0 50.7425 50.7425
36.26 142.357 0.0 50.3219 50.3219
36.27 132.734 0.0 50.0709 50.0709
36.28 122.354 0.0 49.9701 49.9701
36.29 111.281 0.0 49.9544 49.9544
36.3 99.5902 0.0 49.9628 49.9628
36.31 87.3728 0.0 49.8962 49.8962
36.32 74.7355 0.0 49.6735 49.6735
36.33 61.8046 0.0 49.2024 49.2024
36.34 48.7265 0.0 48.4305 48.4305
36.35 35.6685 0.0 47.3135 47.3135
36.36 22.8179 0.0 45.8441 45.8441
36.37 10.3793 0.0 44.0627 44.0627
36.38 -1.42846 0.0 42.0295 42.0295
36.39 -12.378 0.0 39.855 39.855
36.4 -22.2394 0.0 37.6474 37.6474
36.41 -30.7881 0.0 35.5521 35.5521
36.42 -37.8131 0.0 33.6921 33.6921
36.43 -43.126 0.0 32.186 32.186
36.44 -46.5691 0.0 31.1301 31.1301
36.45 -48.0241 0.0 30.5771 30.5771
36.46 -47.419 0.0 30.545 30.545
36.47 -44.7332 0.0 31.0062 31.0062
36.48 -40.001 0.0 31.888 31.888
36.49 -33.3131 0.0 33.0931 33.0931
36.5 -24.8147 0.0 34.4847 34.4847
36.51 -14.7018 0.0 35.9258 35.9258
36.52 -3.21459 0.0 37.2746 37.2746
36.53 9.37059 0.0 38.3954 38.3954
36.54 22.7519 0.0 39.1921 39.1921
36.55 36.6131 0.0 39.5829 39.5829
36.56 50.6354 0.0 39.5426 39.5426
36.57 64.5094 0.0 39.0656 39.0656
36.58 77.9458 0.0 38.2022 38.2022
36.59 90.685 0.0 37.015 37.015
36.6 102.504 0.0 35.5985 35.5985
36.61 113.225 0.0 34.0615 34.0615
36.62 122.711 0.0 32.4944 32.4944
36.63 130.874 0.0 30.9973 30.9973
36.64 137.669 0.0 29.6315 29.6315
36.65 143.088 0.0 28.4516 28.4516
36.66 147.16 0.0 27.4731 27.4731
36.67 149.935 0.0 26.6917 26.6917
36.68 151.484 0.0 26.0835 26.0835
36.69 151.887 0.0 25.6086 25.6086
36.7 151.226 0.0 25.2215 25.2215
36.71 149.58 0.0 24.881 24.881
36.72 147.017 0.0 24.5527 24.5527
36.73 143.595 0.0 24.2226 24.2226
36.74 139.357 0.0 23.8938 23.8938
36.75 134.332 0.0 23.5901 23.5901
36.76 128.537 0.0 23.347 23.347
36.77 121.981 0.0 23.2086 23.2086
36.78 114.67 0.0 23.2281 23.2281
36.79 106.608 0.0 23.4466 23.4466
36.8 97.8095 0.0 23.8955 23.8955
36.81 88.2979 0.0 24.5761 24.5761
36.82 78.1152 0.0 25.4728 25.4728
36.83 67.3243 0.0 26.5357 26.5357
36.84 56.0122 0.0 27.6928 27.6928
36.85 44.2917 0.0 28.8543 28.8543
36.86 32.3022 0.0 29.9058 29.9058
36.87 20.2075 0.0 30.7535 30.7535
36.88 8.19347 0.0 31.2895 31.2895
36.89 -3.53622 0.0 31.4502 31.4502
36.9 -14.7662 0.0 31.1862 31.1862
36.91 -25.2761 0.0 30.4921 30.4921
36.92 -34.8486 0.0 29.4036 29.4036
36.93 -43.2775 0.0 27.9835 27.9835
36.94 -50.3772 0.0 26.3482 26.3482
36.95 -55.9909 0.0 24.6119 24.6119
36.96 -59.9991 0.0 22.9231 22.9231
36.97 -62.3271 0.0 21.4091 21.4091
36.98 -62.9506 0.0 20.1946 20.1946
36.99 -61.9009 0.0 19.3629 19.3629
37 -59.2664 0.0 18.9634 18.9634
37.01 -55.1929 0.0 19.0029 19.0029
37.02 -49.8816 0.0 19.4376 19.4376
37.03 -43.5833 0.0 20.1803 20.1803
37.04 -36.5912 0.0 21.1162 21.1162
37.05 -29.2313 0.0 22.0953 22.0953
37.06 -21.8505 0.0 22.9735 22.9735
37.07 -14.8032 0.0 23.5992 23.5992
37.08 -8.43789 0.0 23.8589 23.8589
37.09 -3.08232 0.0 23.6573 23.6573
37.1 0.969532 0.0 22.9615 22.9615
37.11 3.47011 0.0 21.7769 21.7769
37.12 4.22857 0.0 20.1594 20.1594
37.13 3.11871 0.0 18.2173 18.2173
37.14 0.0839351 0.0 16.0901 16.0901
37.15 -4.86096 0.0 13.939 13.939
37.16 -11.6313 0.0 11.9373 11.9373
37.17 -20.0771 0.0 10.2481 10.2481
37.18 -29.9907 0.0 9.00573 9.00573
37.19 -41.1168 0.0 8.32683 8.32683
37.2 -53.164 0.0 8.25897 8.25897
37.21 -65.8176 0.0 8.8296 8.8296
37.22 -78.7534 0.0 9.99141 9.99141
37.23 -91.6503 0.0 11.6773 11.6773
37.24 -104.203 0.0 13.7687 13.7687
37.25 -116.131 0.0 16.1388 16.1388
37.26 -127.19 0.0 18.6386 18.6386
37.27 -137.175 0.0 21.1292 21.1292
37.28 -145.929 0.0 23.4919 23.4919
37.29 -153.339 0.0 25.6251 25.6251
37.3 -159.341 0.0 27.4655 27.4655
37.31 -163.912 0.0 28.98 28.98
37.32 -167.072 0.0 30.1721 30.1721
37.33 -168.874 0.0 31.0669 31.0669
37.34 -169.398 0.0 31.7164 31.7164
37.35 -168.747 0.0 32.1774 32.1774
37.36 -167.037 0.0 32.5126 32.5126
37.37 -164.388 0.0 32.7743 32.7743
37.38 -160.924 0.0 33.0093 33.0093
37.39 -156.76 0.0 33.2313 33.2313
37.4 -152 0.0 33.4477 33.4477
37.41 -146.729 0.0 33.6393 33.6393
37.42 -141.016 0.0 33.7829 33.7829
37.43 -134.903 0.0 33.8445 33.8445
37.44 -128.412 0.0 33.7862 33.7862
37.45 -121.539 0.0 33.5897 33.5897
37.46 -114.258 0.0 33.243 33.243
37.47 -106.526 0.0 32.7611 32.7611
37.48 -98.2849 0.0 32.1719 32.1719
37.49 -89.4684 0.0 31.5324 31.5324
37.5 -80.009 0.0 30.909 30.909
37.51 -69.8463 0.0 30.3833 30.3833
37.52 -58.9347 0.0 30.0347 30.0347
37.53 -47.2521 0.0 29.9271 29.9271
37.54 -34.8079 0.0 30.1229 30.1229
37.55 -21.6488 0.0 30.6348 30.6348
37.56 -7.86467 0.0 31.4717 31.4717
37.57 6.40959 0.0 32.5814 32.5814
37.58 20.9937 0.0 33.9063 33.9063
37.59 35.6652 0.0 35.3378 35.3378
37.6 50.1653 0.0 36.7627 36.7627
37.61 64.2079 0.0 38.0681 38.0681
37.62 77.4912 0.0 39.1168 39.1168
37.63 89.7109 0.0 39.8171 39.8171
37.64 100.575 0.0 40.0776 40.0776
37.65 109.82 0.0 39.8638 39.8638
37.66 117.223 0.0 39.1556 39.1556
37.67 122.618 0.0 37.9993 37.9993
37.68 125.901 0.0 36.463 36.463
37.69 127.044 0.0 34.6483 34.6483
37.7 126.091 0.0 32.6818 32.6818
37.71 123.163 0.0 30.7009 30.7009
37.72 118.447 0.0 28.8366 28.8366
37.73 112.191 0.0 27.2083 27.2083
37.74 104.686 0.0 25.9074 25.9074
37.75 96.2543 0.0 24.9957 24.9957
37.76 87.2311 0.0 24.4909 24.4909
37.77 77.9445 0.0 24.3695 24.3695
37.78 68.7 0.0 24.578 24.578
37.79 59.7639 0.0 25.0241 25.0241
37.8 51.3513 0.0 25.6007 25.6007
37.81 43.6166 0.0 26.1804 26.1804
37.82 36.649 0.0 26.647 26.647
37.83 30.4721 0.0 26.8869 26.8869
37.84 25.0482 0.0 26.8168 26.8168
37.85 20.2864 0.0 26.3736 26.3736
37.86 16.0542 0.0 25.5288 25.5288
37.87 12.1915 0.0 24.2925 24.2925
37.88 8.52629 0.0 22.6987 22.6987
37.89 4.88994 0.0 20.8131 20.8131
37.9 1.13242 0.0 18.7166 18.7166
37.91 -2.86495 0.0 16.5049 16.5049
37.92 -7.17923 0.0 14.2702 14.2702
37.93 -11.8392 0.0 12.0932 12.0932
37.94 -16.8225 0.0 10.0525 10.0525
37.95 -22.0564 0.0 8.19439 8.19439
37.96 -27.4231 0.0 6.55305 6.55305
37.97 -32.7673 0.0 5.13425 5.13425
37.98 -37.9074 0.0 3.93139 3.93139
37.99 -42.6481 0.0 2.91213 2.91213
38 -46.7941 0.0 2.04212 2.04212
38.01 -50.1636 0.0 1.28065 1.28065
38.02 -52.6015 0.0 0.577501 0.577501
38.03 -53.9902 0.0 -0.0988498 -0.0988498
38.04 -54.2586 0.0 -0.782437 -0.782437
38.05 -53.3882 0.0 -1.48976 -1.48976
38.06 -51.4162 0.0 -2.22985 -2.22985
38.07 -48.4345 0.0 -3.0085 -3.0085
38.08 -44.5875 0.0 -3.81553 -3.81553
38.09 -40.0652 0.0 -4.64881 -4.64881
38.1 -35.0955 0.0 -5.49552 -5.49552
38.11 -29.9337 0.0 -6.35327 -6.35327
38.12 -24.8517 0.0 -7.22226 -7.22226
38.13 -20.1259 0.0 -8.10806 -8.10806
38.14 -16.0257 0.0 -9.02427 -9.02427
38.15 -12.8024 0.0 -9.98362 -9.98362
38.16 -10.6791 0.0 -11.0049 -11.0049
38.17 -9.84256 0.0 -12.1044 -12.1044
38.18 -10.4358 0.0 -13.2922 -13.2922
38.19 -12.5537 0.0 -14.5683 -14.5683
38.2 -16.2397 0.0 -15.9273 -15.9273
38.21 -21.4847 0.0 -17.3463 -17.3463
38.22 -28.2279 0.0 -18.8001 -18.8001
38.23 -36.3593 0.0 -20.2437 -20.2437
38.24 -45.7232 0.0 -21.6368 -21.6368
38.25 -56.1239 0.0 -22.9281 -22.9281
38.26 -67.3313 0.0 -24.0757 -24.0757
38.27 -79.0882 0.0 -25.0468 -25.0468
38.28 -91.1181 0.0 -25.8079 -25.8079
38.29 -103.133 0.0 -26.3613 -26.3613
38.3 -114.841 0.0 -26.7014 -26.7014
38.31 -125.955 0.0 -26.8571 -26.8571
38.32 -136.202 0.0 -26.8584 -26.8584
38.33 -145.327 0.0 -26.7622 -26.7622
38.34 -153.103 0.0 -26.6097 -26.6097
38.35 -159.337 0.0 -26.4638 -26.4638
38.36 -163.872 0.0 -26.3737 -26.3737
38.37 -166.594 0.0 -26.3768 -26.3768
38.38 -167.433 0.0 -26.5003 -26.5003
38.39 -166.363 0.0 -26.7547 -26.7547
38.4 -163.406 0.0 -27.132 -27.132
38.41 -158.624 0.0 -27.6087 -27.6087
38.42 -152.122 0.0 -28.1544 -28.1544
38.43 -144.037 0.0 -28.7142 -28.7142
38.44 -134.539 0.0 -29.253 -29.253
38.45 -123.821 0.0 -29.7142 -29.7142
38.46 -112.092 0.0 -30.0711 -30.0711
38.47 -99.5721 0.0 -30.2919 -30.2919
38.48 -86.4839 0.0 -30.3781 -30.3781
38.49 -73.0471 0.0 -30.3299 -30.3299
38.5 -59.4723 0.0 -30.1867 -30.1867
38.51 -45.9566 0.0 -29.9904 -29.9904
38.52 -32.6799 0.0 -29.7871 -29.7871
38.53 -19.8028 0.0 -29.6492 -29.6492
38.54 -7.46481 0.0 -29.6242 -29.6242
38.55 4.21559 0.0 -29.7786 -29.7786
38.56 15.1404 0.0 -30.1394 -30.1394
38.57 25.2309 0.0 -30.7379 -30.7379
38.58 34.4263 0.0 -31.5683 -31.5683
38.59 42.6818 0.0 -32.6138 -32.6138
38.6 49.9675 0.0 -33.8275 -33.8275
38.61 56.2671 0.0 -35.1471 -35.1471
38.62 61.5775 0.0 -36.5025 -36.5025
38.63 65.9088 0.0 -37.8068 -37.8068
38.64 69.2848 0.0 -38.9818 -38.9818
38.65 71.744 0.0 -39.949 -39.949
38.66 73.3403 0.0 -40.6443 -40.6443
38.67 74.1447 0.0 -41.0287 -41.0287
38.68 74.2449 0.0 -41.0759 -41.0759
38.69 73.746 0.0 -40.788 -40.788
38.7 72.7691 0.0 -40.1931 -40.1931
38.71 71.449 0.0 -39.338 -39.338
38.72 69.9314 0.0 -38.2834 -38.2834
38.73 68.3678 0.0 -37.1108 -37.1108
38.74 66.9105 0.0 -35.8945 -35.8945
38.75 65.7062 0.0 -34.7232 -34.7232
38.76 64.8893 0.0 -33.6663 -33.6663
38.77 64.5755 0.0 -32.7895 -32.7895
38.78 64.8559 0.0 -32.1329 -32.1329
38.79 65.7916 0.0 -31.7286 -31.7286
38.8 67.4107 0.0 -31.5847 -31.5847
38.81 69.706 0.0 -31.692 -31.692
38.82 72.635 0.0 -32.025 -32.025
38.83 76.1226 0.0 -32.5486 -32.5486
38.84 80.0643 0.0 -33.2203 -33.2203
38.85 84.3325 0.0 -33.9925 -33.9925
38.86 88.7831 0.0 -34.8221 -34.8221
38.87 93.2634 0.0 -35.6724 -35.6724
38.88 97.62 0.0 -36.511 -36.511
38.89 101.707 0.0 -37.3249 -37.3249
38.9 105.392 0.0 -38.098 -38.098
38.91 108.563 0.0 -38.839 -38.839
38.92 111.131 0.0 -39.5533 -39.5533
38.93 113.035 0.0 -40.2555 -40.2555
38.94 114.237 0.0 -40.9636 -40.9636
38.95 114.727 0.0 -41.6918 -41.6918
38.96 114.517 0.0 -42.4559 -42.4559
38.97 113.638 0.0 -43.2566 -43.2566
38.98 112.134 0.0 -44.097 -44.097
38.99 110.061 0.0 -44.9642 -44.9642
39 107.48 0.0 -45.8401 -45.8401
39.01 104.454 0.0 -46.7012 -46.7012
39.02 101.047 0.0 -47.5231 -47.5231
39.03 97.321 0.0 -48.274 -48.274
39.04 93.3369 0.0 -48.9299 -48.9299
39.05 89.1555 0.0 -49.4645 -49.4645
39.06 84.8388 0.0 -49.8698 -49.8698
39.07 80.452 0.0 -50.136 -50.136
39.08 76.0664 0.0 -50.2684 -50.2684
39.09 71.7601 0.0 -50.2801 -50.2801
39.1 67.6198 0.0 -50.1878 -50.1878
39.11 63.7404 0.0 -50.0214 -50.0214
39.12 60.2234 0.0 -49.8084 -49.8084
39.13 57.1744 0.0 -49.5764 -49.5764
39.14 54.6993 0.0 -49.3463 -49.3463
39.15 52.8988 0.0 -49.1368 -49.1368
39.16 51.8632 0.0 -48.9542 -48.9542
39.17 51.6662 0.0 -48.7972 -48.7972
39.18 52.3594 0.0 -48.6514 -48.6514
39.19 53.9668 0.0 -48.4978 -48.4978
39.2 56.4811 0.0 -48.3091 -48.3091
39.21 59.8613 0.0 -48.0523 -48.0523
39.22 64.0312 0.0 -47.7022 -47.7022
39.23 68.8812 0.0 -47.2362 -47.2362
39.24 74.2703 0.0 -46.6433 -46.6433
39.25 80.0306 0.0 -45.9256 -45.9256
39.26 85.973 0.0 -45.1 -45.1
39.27 91.8942 0.0 -44.2012 -44.2012
39.28 97.5834 0.0 -43.2824 -43.2824
39.29 102.83 0.0 -42.4063 -42.4063
39.3 107.433 0.0 -41.6475 -41.6475
39.31 111.202 0.0 -41.0811 -41.0811
39.32 113.972 0.0 -40.7799 -40.7799
39.33 115.601 0.0 -40.8088 -40.8088
39.34 115.977 0.0 -41.2075 -41.2075
39.35 115.024 0.0 -41.9968 -41.9968
39.36 112.696 0.0 -43.1725 -43.1725
39.37 108.988 0.0 -44.6949 -44.6949
39.38 103.926 0.0 -46.5035 -46.5035
39.39 97.5756 0.0 -48.4966 -48.4966
39.4 90.0324 0.0 -50.5744 -50.5744
39.41 81.425 0.0 -52.602 -52.602
39.42 71.9105 0.0 -54.4555 -54.4555
39.43 61.6706 0.0 -56.0186 -56.0186
39.44 50.9081 0.0 -57.1831 -57.1831
39.45 39.8412 0.0 -57.8792 -57.8792
39.46 28.6986 0.0 -58.0556 -58.0556
39.47 17.7128 0.0 -57.7188 -57.7188
39.48 7.11316 0.0 -56.8982 -56.8982
39.49 -2.88132 0.0 -55.6747 -55.6747
39.5 -12.0694 0.0 -54.1556 -54.1556
39.51 -20.2753 0.0 -52.4757 -52.4757
39.52 -27.3551 0.0 -50.7889 -50.7889
39.53 -33.2035 0.0 -49.2455 -49.2455
39.54 -37.7583 0.0 -47.9937 -47.9937
39.55 -41.0041 0.0 -47.1539 -47.1539
39.56 -42.974 0.0 -46.822 -46.822
39.57 -43.7491 0.0 -47.0549 -47.0549
39.58 -43.4561 0.0 -47.8669 -47.8669
39.59 -42.2633 0.0 -49.2297 -49.2297
39.6 -40.374 0.0 -51.079 -51.079
39.61 -38.0188 0.0 -53.3152 -53.3152
39.62 -35.4465 0.0 -55.8185 -55.8185
39.63 -32.914 0.0 -58.456 -58.456
39.64 -30.6767 0.0 -61.0983 -61.0983
39.65 -28.9777 0.0 -63.6223 -63.6223
39.66 -28.0384 0.0 -65.9316 -65.9316
39.67 -28.0505 0.0 -67.9555 -67.9555
39.68 -29.1682 0.0 -69.6588 -69.6588
39.69 -31.5026 0.0 -71.0344 -71.0344
39.7 -35.1181 0.0 -72.1119 -72.1119
39.71 -40.03 0.0 -72.937 -72.937
39.72 -46.2042 0.0 -73.5818 -73.5818
39.73 -53.5586 0.0 -74.1104 -74.1104
39.74 -61.966 0.0 -74.595 -74.595
39.75 -71.2588 0.0 -75.0852 -75.0852
39.76 -81.2341 0.0 -75.6119 -75.6119
39.77 -91.661 0.0 -76.185 -76.185
39.78 -102.288 0.0 -76.7771 -76.7771
39.79 -112.851 0.0 -77.3463 -77.3463
39.8 -123.082 0.0 -77.8193 -77.8193
39.81 -132.718 0.0 -78.128 -78.128
39.82 -141.511 0.0 -78.182 -78.182
39.83 -149.234 0.0 -77.92 -77.92
39.84 -155.69 0.0 -77.2849 -77.2849
39.85 -160.719 0.0 -76.2567 -76.2567
39.86 -164.203 0.0 -74.8489 -74.8489
39.87 -166.069 0.0 -73.1049 -73.1049
39.88 -166.292 0.0 -71.1021 -71.1021
39.89 -164.893 0.0 -68.9536 -68.9536
39.9 -161.941 0.0 -66.7805 -66.7805
39.91 -157.54 0.0 -64.723 -64.723
39.92 -151.832 0.0 -62.9125 -62.9125
39.93 -144.984 0.0 -61.4539 -61.4539
39.94 -137.177 0.0 -60.4377 -60.4377
39.95 -128.601 0.0 -59.9004 -59.9004
39.96 -119.439 0.0 -59.8481 -59.8481
39.97 -109.864 0.0 -60.23 -60.23
39.98 -100.027 0.0 -60.9655 -60.9655
39.99 -90.0502 0.0 -61.9228 -61.9228
40 -80.0277 0.0 -62.9633 -62.9633
40.01 -70.0198 0.0 -63.9282 -63.9282
40.02 -60.0571 0.0 -64.6589 -64.6589
40.03 -50.1443 0.0 -65.0287 -65.0287
40.04 -40.2668 0.0 -64.9292 -64.9292
40.05 -30.399 0.0 -64.304 -64.304
40.06 -20.5138 0.0 -63.1242 -63.1242
40.07 -10.5923 0.0 -61.4347 -61.4347
40.08 -0.632549 0.0 -59.3005 -59.3005
40.09 9.34243 0.0 -56.8384 -56.8384
40.1 19.2793 0.0 -54.1773 -54.1773
40.11 29.0913 0.0 -51.4603 -51.4603
40.12 38.6586 0.0 -48.8336 -48.8336
40.13 47.8313 0.0 -46.4113 -46.4113
40.14 56.435 0.0 -44.295 -44.295
40.15 64.2801 0.0 -42.5301 -42.5301
40.16 71.1715 0.0 -41.1315 -41.1315
40.17 76.9206 0.0 -40.0696 -40.0696
40.18 81.3565 0.0 -39.2665 -39.2665
40.19 84.3375 0.0 -38.6305 -38.6305
40.2 85.761 0.0 -38.037 -38.037
40.21 85.5701 0.0 -37.3681 -37.3681
40.22 83.7597 0.0 -36.5097 -36.5097
40.23 80.3772 0.0 -35.3692 -35.3692
40.24 75.5219 0.0 -33.8859 -33.8859
40.25 69.3408 0.0 -32.0378 -32.0378
40.26 62.0216 0.0 -29.8396 -29.8396
40.27 53.784 0.0 -27.352 -27.352
40.28 44.8698 0.0 -24.6558 -24.6558
40.29 35.5314 0.0 -21.8634 -21.8634
40.3 26.0217 0.0 -19.0887 -19.0887
40.31 16.5831 0.0 -16.4491 -16.4491
40.32 7.43928 0.0 -14.0423 -14.0423
40.33 -1.21267 0.0 -11.9423 -11.9423
40.34 -9.20743 0.0 -10.1826 -10.1826
40.35 -16.415 0.0 -8.76802 -8.76802
40.36 -22.742 0.0 -7.65699 -7.65699
40.37 -28.1317 0.0 -6.77531 -6.77531
40.38 -32.5619 0.0 -6.03113 -6.03113
40.39 -36.042 0.0 -5.30496 -5.30496
40.4 -38.6096 0.0 -4.48643 -4.48643
40.41 -40.3253 0.0 -3.46671 -3.46671
40.42 -41.2689 0.0 -2.16806 -2.16806
40.43 -41.5345 0.0 -0.53645 -0.53645
40.44 -41.226 0.0 1.44301 1.44301
40.45 -40.4529 0.0 3.74885 3.74885
40.46 -39.3264 0.0 6.31441 6.31441
40.47 -37.9562 0.0 9.05621 9.05621
40.48 -36.4468 0.0 11.8608 11.8608
40.49 -34.8946 0.0 14.6106 14.6106
40.5 -33.3856 0.0 17.1876 17.1876
40.51 -31.993 0.0 19.494 19.494
40.52 -30.7751 0.0 21.4561 21.4561
40.53 -29.7745 0.0 23.0295 23.0295
40.54 -29.0166 0.0 24.2166 24.2166
40.55 -28.5104 0.0 25.0454 25.0454
40.56 -28.2482 0.0 25.5902 25.5902
40.57 -28.2077 0.0 25.9457 25.9457
40.58 -28.3538 0.0 26.2198 26.2198
40.59 -28.641 0.0 26.532 26.532
40.6 -29.0171 0.0 26.9931 26.9931
40.61 -29.4261 0.0 27.6981 27.6981
40.62 -29.8121 0.0 28.7151 28.7151
40.63 -30.1223 0.0 30.0803 30.0803
40.64 -30.3097 0.0 31.7977 31.7977
40.65 -30.3358 0.0 33.8398 33.8398
40.66 -30.1718 0.0 36.1468 36.1468
40.67 -29.799 0.0 38.641 38.641
40.68 -29.2093 0.0 41.2343 41.2343
40.69 -28.4039 0.0 43.8349 43.8349
40.7 -27.3924 0.0 46.3554 46.3554
40.71 -26.1909 0.0 48.7319 48.7319
40.72 -24.821 0.0 50.92 50.92
40.73 -23.3078 0.0 52.8928 52.8928
40.74 -21.6794 0.0 54.6594 54.6594
40.75 -19.9663 0.0 56.2423 56.2423
40.76 -18.2017 0.0 57.6897 57.6897
40.77 -16.4219 0.0 59.0509 59.0509
40.78 -14.6676 0.0 60.3836 60.3836
40.79 -12.9851 0.0 61.7351 61.7351
40.8 -11.4271 0.0 63.1421 63.1421
40.81 -10.0538 0.0 64.6228 64.6228
40.82 -8.93227 0.0 66.1743 66.1743
40.83 -8.13548 0.0 67.7735 67.7735
40.84 -7.74028 0.0 69.3803 69.3803
40.85 -7.82381 0.0 70.9438 70.9438
40.86 -8.45907 0.0 72.4061 72.4061
40.87 -9.70959 0.0 73.7156 73.7156
40.88 -11.6237 0.0 74.8227 74.8227
40.89 -14.2285 0.0 75.7085 75.7085
40.9 -17.5248 0.0 76.3658 76.3658
40.91 -21.4826 0.0 76.8156 76.8156
40.92 -26.038 0.0 77.105 77.105
40.93 -31.0925 0.0 77.2965 77.2965
40.94 -36.5143 0.0 77.4773 77.4773
40.95 -42.1414 0.0 77.7334 77.7334
40.96 -47.7874 0.0 78.1564 78.1564
40.97 -53.2491 0.0 78.8231 78.8231
40.98 -58.3158 0.0 79.7928 79.7928
40.99 -62.7792 0.0 81.0982 81.0982
41 -66.4438 0.0 82.7418 82.7418
41.01 -69.1372 0.0 84.6942 84.6942
41.02 -70.7189 0.0 86.8929 86.8929
41.03 -71.0879 0.0 89.2489 89.2489
41.04 -70.1872 0.0 91.6522 91.6522
41.05 -68.0074 0.0 93.9794 93.9794
41.06 -64.586 0.0 96.109 96.109
41.07 -60.0054 0.0 97.9174 97.9174
41.08 -54.3876 0.0 99.3076 99.3076
41.09 -47.8877 0.0 100.201 100.201
41.1 -40.6854 0.0 100.548 100.548
41.11 -32.9758 0.0 100.338 100.338
41.12 -24.9606 0.0 99.5816 99.5816
41.13 -16.8382 0.0 98.3342 98.3342
41.14 -8.79656 0.0 96.6626 96.6626
41.15 -1.00587 0.0 94.6679 94.6679
41.16 6.38633 0.0 92.4507 92.4507
41.17 13.2585 0.0 90.1235 90.1235
41.18 19.5167 0.0 87.7953 87.7953
41.19 25.0945 0.0 85.5605 85.5605
41.2 29.9515 0.0 83.5045 83.5045
41.21 34.0707 0.0 81.6863 81.6863
41.22 37.4552 0.0 80.1508 80.1508
41.23 40.1246 0.0 78.9154 78.9154
41.24 42.111 0.0 77.986 77.986
41.25 43.4558 0.0 77.3392 77.3392
41.26 44.2063 0.0 76.9457 76.9457
41.27 44.4136 0.0 76.7644 76.7644
41.28 44.1304 0.0 76.7426 76.7426
41.29 43.4101 0.0 76.8269 76.8269
41.3 42.3059 0.0 76.9621 76.9621
41.31 40.8708 0.0 77.0942 77.0942
41.32 39.1577 0.0 77.1703 77.1703
41.33 37.2195 0.0 77.1435 77.1435
41.34 35.1097 0.0 76.9733 76.9733
41.35 32.8822 0.0 76.6228 76.6228
41.36 30.5918 0.0 76.0592 76.0592
41.37 28.2941 0.0 75.2689 75.2689
41.38 26.0446 0.0 74.2324 74.2324
41.39 23.8991 0.0 72.9479 72.9479
41.4 21.912 0.0 71.42 71.42
41.41 20.1362 0.0 69.6688 69.6688
41.42 18.6219 0.0 67.7141 67.7141
41.43 17.4154 0.0 65.5906 65.5906
41.44 16.5582 0.0 63.3488 63.3488
41.45 16.0862 0.0 61.0348 61.0348
41.46 16.0281 0.0 58.7029 58.7029
41.47 16.4049 0.0 56.4111 56.4111
41.48 17.2287 0.0 54.2113 54.2113
41.49 18.5025 0.0 52.1525 52.1525
41.5 20.2191 0.0 50.2749 50.2749
41.51 22.3611 0.0 48.6039 48.6039
41.52 24.901 0.0 47.163 47.163
41.53 27.8017 0.0 45.9493 45.9493
41.54 31.0169 0.0 44.9551 44.9551
41.55 34.4931 0.0 44.1599 44.1599
41.56 38.1711 0.0 43.5299 43.5299
41.57 41.9877 0.0 43.0293 43.0293
41.58 45.8792 0.0 42.6138 42.6138
41.59 49.783 0.0 42.24 42.24
41.6 53.6412 0.0 41.8698 41.8698
41.61 57.4031 0.0 41.4659 41.4659
41.62 61.0271 0.0 40.9979 40.9979
41.63 64.4829 0.0 40.4421 40.4421
41.64 67.7529 0.0 39.7801 39.7801
41.65 70.832 0.0 39.005 39.005
41.66 73.7274 0.0 38.1066 38.1066
41.67 76.4576 0.0 37.0844 37.0844
41.68 79.0495 0.0 35.9375 35.9375
41.69 81.5364 0.0 34.6656 34.6656
41.7 83.9539 0.0 33.2701 33.2701
41.71 86.3368 0.0 31.7512 31.7512
41.72 88.7154 0.0 30.1146 30.1146
41.73 91.1119 0.0 28.3661 28.3661
41.74 93.538 0.0 26.518 26.518
41.75 95.9928 0.0 24.5912 24.5912
41.76 98.4614 0.0 22.6116 22.6116
41.77 100.915 0.0 20.6169 20.6169
41.78 103.312 0.0 18.656 18.656
41.79 105.599 0.0 16.7785 16.7785
41.8 107.716 0.0 15.0436 15.0436
41.81 109.597 0.0 13.51 13.51
41.82 111.174 0.0 12.2327 12.2327
41.83 112.385 0.0 11.2573 11.2573
41.84 113.171 0.0 10.6169 10.6169
41.85 113.487 0.0 10.3217 10.3217
41.86 113.3 0.0 10.3667 10.3667
41.87 112.593 0.0 10.7195 10.7195
41.88 111.363 0.0 11.3236 11.3236
41.89 109.629 0.0 12.1098 12.1098
41.9 107.422 0.0 12.9855 12.9855
41.91 104.79 0.0 13.8536 13.8536
41.92 101.792 0.0 14.6146 14.6146
41.93 98.4967 0.0 15.1723 15.1723
41.94 94.9772 0.0 15.4538 15.4538
41.95 91.3091 0.0 15.3989 15.3989
41.96 87.5652 0.0 14.9778 14.9778
41.97 83.812 0.0 14.186 14.186
41.98 80.1058 0.0 13.0592 13.0592
41.99 76.4904 0.0 11.6476 11.6476
42 72.9939 0.0 10.0351 10.0351
42.01 69.6277 0.0 8.30925 8.30925
42.02 66.386 0.0 6.57198 6.57198
42.03 63.2455 0.0 4.92146 4.92146
42.04 60.1675 0.0 3.4385 3.4385
42.05 57.0997 0.0 2.19127 2.19127
42.06 53.9801 0.0 1.2159 1.2159
42.07 50.7406 0.0 0.525391 0.525391
42.08 47.3121 0.0 0.101851 0.101851
42.09 43.6297 0.0 -0.0997047 -0.0997047
42.1 39.6376 0.0 -0.141614 -0.141614
42.11 35.2947 0.0 -0.102666 -0.102666
42.12 30.5787 0.0 -0.0616536 -0.0616536
42.13 25.4901 0.0 -0.0970534 -0.0970534
42.14 20.0545 0.0 -0.264525 -0.264525
42.15 14.324 0.0 -0.609951 -0.609951
42.16 8.37582 0.0 -1.14182 -1.14182
42.17 2.31088 0.0 -1.84688 -1.84688
42.18 -3.75099 0.0 -2.68601 -2.68601
42.19 -9.6765 0.0 -3.5895 -3.5895
42.2 -15.326 0.0 -4.47997 -4.47997
42.21 -20.5617 0.0 -5.26331 -5.26331
42.22 -25.256 0.0 -5.85601 -5.85601
42.23 -29.3004 0.0 -6.1756 -6.1756
42.24 -32.6134 0.0 -6.1746 -6.1746
42.25 -35.1474 0.0 -5.81862 -5.81862
42.26 -36.8939 0.0 -5.11011 -5.11011
42.27 -37.8868 0.0 -4.08322 -4.08322
42.28 -38.203 0.0 -2.80204 -2.80204
42.29 -37.9605 0.0 -1.35747 -1.35747
42.3 -37.3145 0.0 0.141479 0.141479
42.31 -36.4498 0.0 1.58584 1.58584
42.32 -35.573 0.0 2.85896 2.85896
42.33 -34.9011 0.0 3.86207 3.86207
42.34 -34.651 0.0 4.51602 4.51602
42.35 -35.0277 0.0 4.77267 4.77267
42.36 -36.2126 0.0 4.60965 4.60965
42.37 -38.3543 0.0 4.04829 4.04829
42.38 -41.5592 0.0 3.13219 3.13219
42.39 -45.8859 0.0 1.94091 1.94091
42.4 -51.3413 0.0 0.568321 0.568321
42.41 -57.8796 0.0 -0.872416 -0.872416
42.42 -65.4039 0.0 -2.26709 -2.26709
42.43 -73.771 0.0 -3.51404 -3.51404
42.44 -82.7975 0.0 -4.50853 -4.50853
42.45 -92.2689 0.0 -5.18211 -5.18211
42.46 -101.949 0.0 -5.47576 -5.47576
42.47 -111.592 0.0 -5.36609 -5.36609
42.48 -120.951 0.0 -4.84346 -4.84346
42.49 -129.79 0.0 -3.9314 -3.9314
42.5 -137.894 0.0 -2.66096 -2.66096
42.51 -145.078 0.0 -1.08239 -1.08239
42.52 -151.19 0.0 0.739514 0.739514
42.53 -156.119 0.0 2.75408 2.75408
42.54 -159.798 0.0 4.89647 4.89647
42.55 -162.203 0.0 7.11123 7.11123
42.56 -163.351 0.0 9.34993 9.34993
42.57 -163.298 0.0 11.563 11.563
42.58 -162.135 0.0 13.7138 13.7138
42.59 -159.98 0.0 15.7627 15.7627
42.6 -156.972 0.0 17.6752 17.6752
42.61 -153.265 0.0 19.4179 19.4179
42.62 -149.016 0.0 20.9557 20.9557
42.63 -144.38 0.0 22.2563 22.2563
42.64 -139.504 0.0 23.2852 23.2852
42.65 -134.516 0.0 24.0233 24.0233
42.66 -129.523 0.0 24.4461 24.4461
42.67 -124.604 0.0 24.5569 24.5569
42.68 -119.808 0.0 24.3669 24.3669
42.69 -115.152 0.0 23.9054 23.9054
42.7 -110.622 0.0 23.2295 23.2295
42.71 -106.173 0.0 22.4049 22.4049
42.72 -101.731 0.0 21.5298 21.5298
42.73 -97.2003 0.0 20.7043 20.7043
42.74 -92.4682 0.0 20.0432 20.0432
42.75 -87.4104 0.0 19.6504 19.6504
42.76 -81.8992 0.0 19.6302 19.6302
42.77 -75.8112 0.0 20.0702 20.0702
42.78 -69.034 0.0 21.016 21.016
42.79 -61.4744 0.0 22.4954 22.4954
42.8 -53.0637 0.0 24.4877 24.4877
42.81 -43.7636 0.0 26.9476 26.9476
42.82 -33.5699 0.0 29.7759 29.7759
42.83 -22.5149 0.0 32.8599 32.8599
42.84 -10.6687 0.0 36.0437 36.0437
42.85 1.8623 0.0 39.1757 39.1757
42.86 14.9371 0.0 42.0999 42.0999
42.87 28.3839 0.0 44.6511 44.6511
42.88 42.0052 0.0 46.7138 46.7138
42.89 55.5836 0.0 48.1684 48.1684
42.9 68.8882 0.0 48.9658 48.9658
42.91 81.6818 0.0 49.0612 49.0612
42.92 93.7277 0.0 48.4793 48.4793
42.93 104.797 0.0 47.2731 47.2731
42.94 114.675 0.0 45.5152 45.5152
42.95 123.167 0.0 43.316 43.316
42.96 130.105 0.0 40.7912 40.7912
42.97 135.35 0.0 38.0661 38.0661
42.98 138.798 0.0 35.2527 35.2527
42.99 140.383 0.0 32.4571 32.4571
43 140.076 0.0 29.7605 29.7605
43.01 137.888 0.0 27.2211 27.2211
43.02 133.871 0.0 24.8706 24.8706
43.03 128.116 0.0 22.7226 22.7226
43.04 120.75 0.0 20.7613 20.7613
43.05 111.932 0.0 18.9725 18.9725
43.06 101.852 0.0 17.3152 17.3152
43.07 90.7247 0.0 15.7643 15.7643
43.08 78.7829 0.0 14.2801 14.2801
43.09 66.2709 0.0 12.8531 12.8531
43.1 53.4379 0.0 11.4671 11.4671
43.11 40.5305 0.0 10.1135 10.1135
43.12 27.7848 0.0 8.81419 8.81419
43.13 15.4198 0.0 7.5742 7.5742
43.14 3.63025 0.0 6.42175 6.42175
43.15 -7.41871 0.0 5.36271 5.36271
43.16 -17.596 0.0 4.41403 4.41403
43.17 -26.8077 0.0 3.57372 3.57372
43.18 -34.9981 0.0 2.8231 2.8231
43.19 -42.1493 0.0 2.14334 2.14334
43.2 -48.2792 0.0 1.49324 1.49324
43.21 -53.4373 0.0 0.82935 0.82935
43.22 -57.6997 0.0 0.0996571 0.0996571
43.23 -61.1622 0.0 -0.73882 -0.73882
43.24 -63.9338 0.0 -1.73024 -1.73024
43.25 -66.1285 0.0 -2.90347 -2.90347
43.26 -67.8585 0.0 -4.26952 -4.26952
43.27 -69.2266 0.0 -5.82438 -5.82438
43.28 -70.3209 0.0 -7.54208 -7.54208
43.29 -71.2097 0.0 -9.38529 -9.38529
43.3 -71.9385 0.0 -11.2905 -11.2905
43.31 -72.5282 0.0 -13.2008 -13.2008
43.32 -72.9756 0.0 -15.0444 -15.0444
43.33 -73.2551 0.0 -16.7629 -16.7629
43.34 -73.3216 0.0 -18.2994 -18.2994
43.35 -73.1151 0.0 -19.6229 -19.6229
43.36 -72.5661 0.0 -20.7109 -20.7109
43.37 -71.6016 0.0 -21.5664 -21.5664
43.38 -70.1505 0.0 -22.2105 -22.2105
43.39 -68.1502 0.0 -22.6808 -22.6808
43.4 -65.5512 0.0 -23.0238 -23.0238
43.41 -62.3224 0.0 -23.2946 -23.2946
43.42 -58.4537 0.0 -23.5483 -23.5483
43.43 -53.9592 0.0 -23.8258 -23.8258
43.44 -48.8777 0.0 -24.1653 -24.1653
43.45 -43.2727 0.0 -24.5783 -24.5783
43.46 -37.2311 0.0 -25.0699 -25.0699
43.47 -30.8601 0.0 -25.6139 -25.6139
43.48 -24.2846 0.0 -26.1844 -26.1844
43.49 -17.6421 0.0 -26.7319 -26.7319
43.5 -11.0781 0.0 -27.2149 -27.2149
43.51 -4.74118 0.0 -27.5858 -27.5858
43.52 1.22274 0.0 -27.8087 -27.8087
43.53 6.67535 0.0 -27.8713 -27.8713
43.54 11.4909 0.0 -27.7679 -27.7679
43.55 15.5605 0.0 -27.5235 -27.5235
43.56 18.7958 0.0 -27.1798 -27.1798
43.57 21.1318 0.0 -26.8018 -26.8018
43.58 22.5288 0.0 -26.4608 -26.4608
43.59 22.9731 0.0 -26.2371 -26.2371
43.6 22.4771 0.0 -26.2101 -26.2101
43.61 21.0782 0.0 -26.4462 -26.4462
43.62 18.8366 0.0 -26.9976 -26.9976
43.63 15.833 0.0 -27.886 -27.886
43.64 12.1649 0.0 -29.1119 -29.1119
43.65 7.94314 0.0 -30.6431 -30.6431
43.66 3.28768 0.0 -32.4187 -32.4187
43.67 -1.6761 0.0 -34.3529 -34.3529
43.68 -6.82124 0.0 -36.3518 -36.3518
43.69 -12.0225 0.0 -38.2975 -38.2975
43.7 -17.1594 0.0 -40.0836 -40.0836
43.71 -22.1181 0.0 -41.6049 -41.6049
43.72 -26.7934 0.0 -42.7846 -42.7846
43.73 -31.0895 0.0 -43.5525 -43.5525
43.74 -34.9203 0.0 -43.8827 -43.8827
43.75 -38.2098 0.0 -43.7762 -43.7762
43.76 -40.8915 0.0 -43.2565 -43.2565
43.77 -42.9083 0.0 -42.3847 -42.3847
43.78 -44.2116 0.0 -41.2364 -41.2364
43.79 -44.7621 0.0 -39.8999 -39.8999
43.8 -44.5293 0.0 -38.4777 -38.4777
43.81 -43.4922 0.0 -37.0628 -37.0628
43.82 -41.6406 0.0 -35.7504 -35.7504
43.83 -38.9761 0.0 -34.6069 -34.6069
43.84 -35.5137 0.0 -33.6953 -33.6953
43.85 -31.2837 0.0 -33.0503 -33.0503
43.86 -26.3327 0.0 -32.6883 -32.6883
43.87 -20.7249 0.0 -32.6091 -32.6091
43.88 -14.5429 0.0 -32.7921 -32.7921
43.89 -7.88708 0.0 -33.2179 -33.2179
43.9 -0.874901 0.0 -33.8411 -33.8411
43.91 6.36127 0.0 -34.6353 -34.6353
43.92 13.6771 0.0 -35.5591 -35.5591
43.93 20.92 0.0 -36.58 -36.58
43.94 27.9339 0.0 -37.6739 -37.6739
43.95 34.5643 0.0 -38.8213 -38.8213
43.96 40.6632 0.0 -40.0042 -40.0042
43.97 46.0953 0.0 -41.2083 -41.2083
43.98 50.7422 0.0 -42.4242 -42.4242
43.99 54.5074 0.0 -43.6334 -43.6334
44 57.3197 0.0 -44.8237 -44.8237
44.01 59.1359 0.0 -45.9709 -45.9709
44.02 59.9425 0.0 -47.0515 -47.0515
44.03 59.7562 0.0 -48.0402 -48.0402
44.04 58.6225 0.0 -48.9075 -48.9075
44.05 56.6151 0.0 -49.6251 -49.6251
44.06 53.8321 0.0 -50.1711 -50.1711
44.07 50.3935 0.0 -50.5275 -50.5275
44.08 46.4371 0.0 -50.6911 -50.6911
44.09 42.1144 0.0 -50.6594 -50.6594
44.1 37.586 0.0 -50.445 -50.445
44.11 33.0184 0.0 -50.0794 -50.0794
44.12 28.5788 0.0 -49.5848 -49.5848
44.13 24.4322 0.0 -49.0002 -49.0002
44.14 20.7376 0.0 -48.3656 -48.3656
44.15 17.6449 0.0 -47.7149 -47.7149
44.16 15.2917 0.0 -47.0767 -47.0767
44.17 13.801 0.0 -46.481 -46.481
44.18 13.2784 0.0 -45.9334 -45.9334
44.19 13.8096 0.0 -45.4446 -45.4446
44.2 15.4583 0.0 -45.0083 -45.0083
44.21 18.264 0.0 -44.614 -44.614
44.22 22.2402 0.0 -44.2472 -44.2472
44.23 27.3724 0.0 -43.8954 -43.8954
44.24 33.6172 0.0 -43.5452 -43.5452
44.25 40.9013 0.0 -43.1993 -43.1993
44.26 49.1214 0.0 -42.8624 -42.8624
44.27 58.1449 0.0 -42.5449 -42.5449
44.28 67.8115 0.0 -42.2825 -42.2825
44.29 77.9356 0.0 -42.1036 -42.1036
44.3 88.3097 0.0 -42.0557 -42.0557
44.31 98.709 0.0 -42.172 -42.172
44.32 108.897 0.0 -42.4946 -42.4946
44.33 118.63 0.0 -43.0468 -43.0468
44.34 127.667 0.0 -43.845 -43.845
44.35 135.775 0.0 -44.8896 -44.8896
44.36 142.734 0.0 -46.1585 -46.1585
44.37 148.351 0.0 -47.6192 -47.6192
44.38 152.459 0.0 -49.2179 -49.2179
44.39 154.927 0.0 -50.8943 -50.8943
44.4 155.667 0.0 -52.5809 -52.5809
44.41 154.633 0.0 -54.208 -54.208
44.42 151.828 0.0 -55.714 -55.714
44.43 147.303 0.0 -57.0528 -57.0528
44.44 141.156 0.0 -58.1825 -58.1825
44.45 133.53 0.0 -59.0919 -59.0919
44.46 124.611 0.0 -59.7766 -59.7766
44.47 114.618 0.0 -60.2633 -60.2633
44.48 103.803 0.0 -60.5716 -60.5716
44.49 92.4343 0.0 -60.7543 -60.7543
44.5 80.7965 0.0 -60.8375 -60.8375
44.51 69.1755 0.0 -60.8675 -60.8675
44.52 57.852 0.0 -60.874 -60.874
44.53 47.0915 0.0 -60.8625 -60.8625
44.54 37.1367 0.0 -60.8437 -60.8437
44.55 28.1998 0.0 -60.7848 -60.7848
44.56 20.4568 0.0 -60.6628 -60.6628
44.57 14.0427 0.0 -60.4297 -60.4297
44.58 9.04934 0.0 -60.0433 -60.0433
44.59 5.52371 0.0 -59.4577 -59.4577
44.6 3.46906 0.0 -58.6441 -58.6441
44.61 2.84698 0.0 -57.589 -57.589
44.62 3.58108 0.0 -56.3011 -56.3011
44.63 5.56179 0.0 -54.8168 -54.8168
44.64 8.65193 0.0 -53.1979 -53.1979
44.65 12.6928 0.0 -51.5298 -51.5298
44.66 17.5102 0.0 -49.9182 -49.9182
44.67 22.9206 0.0 -48.4736 -48.4736
44.68 28.7365 0.0 -47.3075 -47.3075
44.69 34.7712 0.0 -46.5242 -46.5242
44.7 40.8428 0.0 -46.2028 -46.2028
44.71 46.7769 0.0 -46.4019 -46.4019
44.72 52.4092 0.0 -47.1282 -47.1282
44.73 57.5868 0.0 -48.3698 -48.3698
44.74 62.1686 0.0 -50.0586 -50.0586
44.75 66.0257 0.0 -52.1057 -52.1057
44.76 69.0418 0.0 -54.3898 -54.3898
44.77 71.1131 0.0 -56.7711 -56.7711
44.78 72.1482 0.0 -59.1122 -59.1122
44.79 72.0692 0.0 -61.2752 -61.2752
44.8 70.8122 0.0 -63.1492 -63.1492
44.81 68.3283 0.0 -64.6423 -64.6423
44.82 64.5855 0.0 -65.7115 -65.7115
44.83 59.5702 0.0 -66.3422 -66.3422
44.84 53.2884 0.0 -66.5564 -66.5564
44.85 45.7674 0.0 -66.4184 -66.4184
44.86 37.0567 0.0 -66.0177 -66.0177
44.87 27.2281 0.0 -65.4491 -65.4491
44.88 16.3752 0.0 -64.8252 -64.8252
44.89 4.61288 0.0 -64.2359 -64.2359
44.9 -7.92574 0.0 -63.7703 -63.7703
44.91 -21.0913 0.0 -63.4677 -63.4677
44.92 -34.7218 0.0 -63.3542 -63.3542
44.93 -48.6466 0.0 -63.4174 -63.4174
44.94 -62.6899 0.0 -63.5981 -63.5981
44.95 -76.6753 0.0 -63.8347 -63.8347
44.96 -90.429 0.0 -64.02 -64.02
44.97 -103.783 0.0 -64.0667 -64.0667
44.98 -116.579 0.0 -63.8648 -63.8648
44.99 -128.668 0.0 -63.3469 -63.3469
45 -139.914 0.0 -62.4424 -62.4424
45.01 -150.192 0.0 -61.1311 -61.1311
45.02 -159.392 0.0 -59.4251 -59.4251
45.03 -167.415 0.0 -57.3607 -57.3607
45.04 -174.176 0.0 -55.0149 -55.0149
45.05 -179.601 0.0 -52.479 -52.479
45.06 -183.629 0.0 -49.8642 -49.8642
45.07 -186.211 0.0 -47.2815 -47.2815
45.08 -187.315 0.0 -44.8321 -44.8321
45.09 -186.92 0.0 -42.6009 -42.6009
45.1 -185.025 0.0 -40.6506 -40.6506
45.11 -181.648 0.0 -38.9997 -38.9997
45.12 -176.827 0.0 -37.6459 -37.6459
45.13 -170.623 0.0 -36.5556 -36.5556
45.14 -163.123 0.0 -35.663 -35.663
45.15 -154.436 0.0 -34.8945 -34.8945
45.16 -144.699 0.0 -34.164 -34.164
45.17 -134.069 0.0 -33.3892 -33.3892
45.18 -122.725 0.0 -32.4974 -32.4974
45.19 -110.862 0.0 -31.4448 -31.4448
45.2 -98.689 0.0 -30.203 -30.203
45.21 -86.4191 0.0 -28.7859 -28.7859
45.22 -74.2667 0.0 -27.2203 -27.2203
45.23 -62.4399 0.0 -25.5681 -25.5681
45.24 -51.1338 0.0 -23.8942 -23.8942
45.25 -40.5253 0.0 -22.2877 -22.2877
45.26 -30.7668 0.0 -20.8172 -20.8172
45.27 -21.9829 0.0 -19.5421 -19.5421
45.28 -14.2666 0.0 -18.5164 -18.5164
45.29 -7.67794 0.0 -17.7471 -17.7471
45.3 -2.24357 0.0 -17.2224 -17.2224
45.31 2.04227 0.0 -16.8993 -16.8993
45.32 5.21547 0.0 -16.7065 -16.7065
45.33 7.33877 0.0 -16.5528 -16.5528
45.34 8.49756 0.0 -16.3366 -16.3366
45.35 8.79516 0.0 -15.9552 -15.9552
45.36 8.34772 0.0 -15.3137 -15.3137
45.37 7.27907 0.0 -14.3341 -14.3341
45.38 5.71576 0.0 -12.9648 -12.9648
45.39 3.78241 0.0 -11.1844 -11.1844
45.4 1.59769 0.0 -9.00569 -9.00569
45.41 -0.72913 0.0 -6.46687 -6.46687
45.42 -3.10085 0.0 -3.64615 -3.64615
45.43 -5.43419 0.0 -0.628805 -0.628805
45.44 -7.661 0.0 2.477 2.477
45.45 -9.72857 0.0 5.56557 5.56557
45.46 -11.5994 0.0 8.52637 8.52637
45.47 -13.2502 0.0 11.2732 11.2732
45.48 -14.6706 0.0 13.7336 13.7336
45.49 -15.8616 0.0 15.8546 15.8546
45.5 -16.8328 0.0 17.6088 17.6088
45.51 -17.6009 0.0 18.9959 18.9959
45.52 -18.1872 0.0 20.0352 20.0352
45.53 -18.6152 0.0 20.7592 20.7592
45.54 -18.9087 0.0 21.2157 21.2157
45.55 -19.0902 0.0 21.4562 21.4562
45.56 -19.1793 0.0 21.5313 21.5313
45.57 -19.1921 0.0 21.4871 21.4871
45.58 -19.1402 0.0 21.3712 21.3712
45.59 -19.0311 0.0 21.2141 21.2141
45.6 -18.8683 0.0 21.0433 21.0433
45.61 -18.6522 0.0 20.8832 20.8832
45.62 -18.3811 0.0 20.7471 20.7471
45.63 -18.0523 0.0 20.6503 20.6503
45.64 -17.6633 0.0 20.6133 20.6133
45.65 -17.2129 0.0 20.6459 20.6459
45.66 -16.7022 0.0 20.7692 20.7692
45.67 -16.135 0.0 21.003 21.003
45.68 -15.5177 0.0 21.3607 21.3607
45.69 -14.8596 0.0 21.8556 21.8556
45.7 -14.1717 0.0 22.4927 22.4927
45.71 -13.4657 0.0 23.2717 23.2717
45.72 -12.7532 0.0 24.1712 24.1712
45.73 -12.0436 0.0 25.1656 25.1656
45.74 -11.3434 0.0 26.2134 26.2134
45.75 -10.6547 0.0 27.2667 27.2667
45.76 -9.9749 0.0 28.2689 28.2689
45.77 -9.296 0.0 29.17 29.17
45.78 -8.60533 0.0 29.9193 29.9193
45.79 -7.88646 0.0 30.4815 30.4815
45.8 -7.12067 0.0 30.8427 30.8427
45.81 -6.28907 0.0 31.0051 31.0051
45.82 -5.37493 0.0 30.9909 30.9909
45.83 -4.36614 0.0 30.8521 30.8521
45.84 -3.25765 0.0 30.6516 30.6516
45.85 -2.05349 0.0 30.4665 30.4665
45.86 -0.768316 0.0 30.3783 30.3783
45.87 0.571792 0.0 30.4592 30.4592
45.88 1.92941 0.0 30.7696 30.7696
45.89 3.25677 0.0 31.3412 31.3412
45.9 4.49764 0.0 32.1824 32.1824
45.91 5.59011 0.0 33.2669 33.2669
45.92 6.46997 0.0 34.531 34.531
45.93 7.07465 0.0 35.8884 35.8884
45.94 7.34729 0.0 37.2317 37.2317
45.95 7.2408 0.0 38.4382 38.4382
45.96 6.72156 0.0 39.3894 39.3894
45.97 5.77254 0.0 39.9895 39.9895
45.98 4.39558 0.0 40.1634 40.1634
45.99 2.61275 0.0 39.8822 39.8822
46 0.466667 0.0 39.1643 39.1643
46.01 -1.98031 0.0 38.0733 38.0733
46.02 -4.64783 0.0 36.7238 36.7238
46.03 -7.44022 0.0 35.2742 35.2742
46.04 -10.2499 0.0 33.9029 33.9029
46.05 -12.9614 0.0 32.8154 32.8154
46.06 -15.4555 0.0 32.1945 32.1945
46.07 -17.6137 0.0 32.2157 32.2157
46.08 -19.3225 0.0 33.0035 33.0035
46.09 -20.4773 0.0 34.6233 34.6233
46.1 -20.9862 0.0 37.0842 37.0842
46.11 -20.7729 0.0 40.3229 40.3229
46.12 -19.7793 0.0 44.2043 44.2043
46.13 -17.9677 0.0 48.5407 48.5407
46.14 -15.3217 0.0 53.0997 53.0997
46.15 -11.847 0.0 57.623 57.623
46.16 -7.57193 0.0 61.8409 61.8409
46.17 -2.54689 0.0 65.5179 65.5179
46.18 3.15651 0.0 68.4535 68.4535
46.19 9.44661 0.0 70.4924 70.4924
46.2 16.2135 0.0 71.5665 71.5665
46.21 23.3311 0.0 71.6669 71.6669
46.22 30.6599 0.0 70.8761 70.8761
46.23 38.0495 0.0 69.3285 69.3285
46.24 45.3425 0.0 67.2205 67.2205
46.25 52.3776 0.0 64.7774 64.7774
46.26 58.9939 0.0 62.2391 62.2391
46.27 65.0346 0.0 59.8384 59.8384
46.28 70.3513 0.0 57.7747 57.7747
46.29 74.808 0.0 56.201 56.201
46.3 78.2848 0.0 55.2052 55.2052
46.31 80.6816 0.0 54.8164 54.8164
46.32 81.921 0.0 54.993 54.993
46.33 81.9505 0.0 55.6395 55.6395
46.34 80.7445 0.0 56.6095 56.6095
46.35 78.305 0.0 57.732 57.732
46.36 74.6618 0.0 58.8252 58.8252
46.37 69.8716 0.0 59.7184 59.7184
46.38 64.0167 0.0 60.2733 60.2733
46.39 57.2023 0.0 60.3937 60.3937
46.4 49.5537 0.0 60.0363 60.0363
46.41 41.2125 0.0 59.2185 59.2185
46.42 32.3329 0.0 58.0121 58.0121
46.43 23.0771 0.0 56.5279 56.5279
46.44 13.6106 0.0 54.9314 54.9314
46.45 4.09817 0.0 53.3788 53.3788
46.46 -5.30105 0.0 52.0511 52.0511
46.47 -14.4375 0.0 51.0935 51.0935
46.48 -23.1749 0.0 50.6279 50.6279
46.49 -31.3935 0.0 50.7215 50.7215
46.5 -38.9929 0.0 51.3969 51.3969
46.51 -45.8934 0.0 52.6164 52.6164
46.52 -52.0374 0.0 54.2934 54.2934
46.53 -57.3895 0.0 56.2985 56.2985
46.54 -61.9359 0.0 58.4749 58.4749
46.55 -65.6827 0.0 60.6537 60.6537
46.56 -68.654 0.0 62.66 62.66
46.57 -70.8882 0.0 64.3442 64.3442
46.58 -72.4351 0.0 65.5871 65.5871
46.59 -73.352 0.0 66.31 66.31
46.6 -73.699 0.0 66.473 66.473
46.61 -73.5356 0.0 66.0916 66.0916
46.62 -72.9166 0.0 65.2196 65.2196
46.63 -71.8887 0.0 63.9437 63.9437
46.64 -70.488 0.0 62.379 62.379
46.65 -68.7384 0.0 60.6484 60.6484
46.66 -66.65 0.0 58.88 58.88
46.67 -64.22 0.0 57.184 57.184
46.68 -61.4329 0.0 55.6579 55.6579
46.69 -58.263 0.0 54.364 54.364
46.7 -54.6766 0.0 53.3486 53.3486
46.71 -50.6351 0.0 52.6231 52.6231
46.72 -46.0985 0.0 52.1785 52.1785
46.73 -41.0286 0.0 51.9876 51.9876
46.74 -35.3927 0.0 52.0217 52.0217
46.75 -29.1658 0.0 52.2348 52.2348
46.76 -22.3336 0.0 52.6046 52.6046
46.77 -14.894 0.0 53.11 53.11
46.78 -6.85764 0.0 53.7376 53.7376
46.79 1.75101 0.0 54.497 54.497
46.8 10.8945 0.0 55.3975 55.3975
46.81 20.523 0.0 56.468 56.468
46.82 30.5753 0.0 57.7197 57.7197
46.83 40.9803 0.0 59.1717 59.1717
46.84 51.6583 0.0 60.8197 60.8197
46.85 62.5218 0.0 62.6482 62.6482
46.86 73.4773 0.0 64.6267 64.6267
46.87 84.4252 0.0 66.6888 66.6888
46.88 95.2611 0.0 68.7739 68.7739
46.89 105.876 0.0 70.7902 70.7902
46.9 116.156 0.0 72.6539 72.6539
46.91 125.985 0.0 74.2691 74.2691
46.92 135.243 0.0 75.5745 75.5745
46.93 143.808 0.0 76.5124 76.5124
46.94 151.559 0.0 77.046 77.046
46.95 158.378 0.0 77.1779 77.1779
46.96 164.152 0.0 76.927 76.927
46.97 168.776 0.0 76.3417 76.3417
46.98 172.16 0.0 75.4833 75.4833
46.99 174.227 0.0 74.4297 74.4297
47 174.925 0.0 73.2561 73.2561
47.01 174.222 0.0 72.0339 72.0339
47.02 172.116 0.0 70.8113 70.8113
47.03 168.631 0.0 69.622 69.622
47.04 163.823 0.0 68.4696 68.4696
47.05 157.778 0.0 67.342 67.342
47.06 150.608 0.0 66.1893 66.1893
47.07 142.451 0.0 64.965 64.965
47.08 133.468 0.0 63.5985 63.5985
47.09 123.834 0.0 62.033 62.033
47.1 113.738 0.0 60.2226 60.2226
47.11 103.374 0.0 58.1369 58.1369
47.12 92.9342 0.0 55.7878 55.7878
47.13 82.606 0.0 53.204 53.204
47.14 72.5656 0.0 50.4634 50.4634
47.15 62.9735 0.0 47.6585 47.6585
47.16 53.971 0.0 44.914 44.914
47.17 45.6776 0.0 42.3624 42.3624
47.18 38.189 0.0 40.121 40.121
47.19 31.5763 0.0 38.3197 38.3197
47.2 25.8857 0.0 37.0343 37.0343
47.21 21.1396 0.0 36.3234 36.3234
47.22 17.3367 0.0 36.1813 36.1813
47.23 14.4543 0.0 36.5687 36.5687
47.24 12.4498 0.0 37.3872 37.3872
47.25 11.2623 0.0 38.5087 38.5087
47.26 10.8151 0.0 39.7609 39.7609
47.27 11.0178 0.0 40.9612 40.9612
47.28 11.7686 0.0 41.9224 41.9224
47.29 12.9569 0.0 42.4691 42.4691
47.3 14.4656 0.0 42.4554 42.4554
47.31 16.1747 0.0 41.7713 41.7713
47.32 17.9635 0.0 40.3635 40.3635
47.33 19.7144 0.0 38.2306 38.2306
47.34 21.3156 0.0 35.4234 35.4234
47.35 22.6647 0.0 32.0473 32.0473
47.36 23.6711 0.0 28.2439 28.2439
47.37 24.2588 0.0 24.1852 24.1852
47.38 24.3684 0.0 20.0596 20.0596
47.39 23.9583 0.0 16.0517 16.0517
47.4 23.0051 0.0 12.3279 12.3279
47.41 21.5035 0.0 9.0365 9.0365
47.42 19.4646 0.0 6.27344 6.27344
47.43 16.914 0.0 4.10398 4.10398
47.44 13.8894 0.0 2.53765 2.53765
47.45 10.4365 0.0 1.54649 1.54649
47.46 6.6064 0.0 1.0666 1.0666
47.47 2.45128 0.0 0.997719 0.997719
47.48 -1.97848 0.0 1.22848 1.22848
47.49 -6.63722 0.0 1.63522 1.63522
47.5 -11.4861 0.0 2.10108 2.10108
47.51 -16.4941 0.0 2.52012 2.52012
47.52 -21.6386 0.0 2.79765 2.79765
47.53 -26.9044 0.0 2.87343 2.87343
47.54 -32.2821 0.0 2.70713 2.70713
47.55 -37.7659 0.0 2.28693 2.28693
47.56 -43.3508 0.0 1.61075 1.61075
47.57 -49.0291 0.0 0.706078 0.706078
47.58 -54.7879 0.0 -0.400086 -0.400086
47.59 -60.606 0.0 -1.663 -1.663
47.6 -66.4516 0.0 -3.04542 -3.04542
47.61 -72.2809 0.0 -4.51305 -4.51305
47.62 -78.038 0.0 -6.03005 -6.03005
47.63 -83.6544 0.0 -7.57256 -7.57256
47.64 -89.0518 0.0 -9.1122 -9.1122
47.65 -94.1434 0.0 -10.6356 -10.6356
47.66 -98.8381 0.0 -12.1179 -12.1179
47.67 -103.044 0.0 -13.5422 -13.5422
47.68 -106.672 0.0 -14.8828 -14.8828
47.69 -109.643 0.0 -16.1108 -16.1108
47.7 -111.89 0.0 -17.2023 -17.2023
47.71 -113.361 0.0 -18.1199 -18.1199
47.72 -114.028 0.0 -18.8395 -18.8395
47.73 -113.882 0.0 -19.3386 -19.3386
47.74 -112.944 0.0 -19.6018 -19.6018
47.75 -111.257 0.0 -19.6385 -19.6385
47.76 -108.892 0.0 -19.4678 -19.4678
47.77 -105.943 0.0 -19.1242 -19.1242
47.78 -102.525 0.0 -18.6631 -18.6631
47.79 -98.7723 0.0 -18.1547 -18.1547
47.8 -94.8317 0.0 -17.6813 -17.6813
47.81 -90.8579 0.0 -17.3191 -17.3191
47.82 -87.0077 0.0 -17.1573 -17.1573
47.83 -83.4332 0.0 -17.2538 -17.2538
47.84 -80.2762 0.0 -17.6648 -17.6648
47.85 -77.6613 0.0 -18.4097 -18.4097
47.86 -75.6907 0.0 -19.4863 -19.4863
47.87 -74.4395 0.0 -20.8545 -20.8545
47.88 -73.951 0.0 -22.455 -22.455
47.89 -74.2351 0.0 -24.1929 -24.1929
47.9 -75.2667 0.0 -25.9643 -25.9643
47.91 -76.9857 0.0 -27.6473 -27.6473
47.92 -79.2999 0.0 -29.1261 -29.1261
47.93 -82.0873 0.0 -30.2967 -30.2967
47.94 -85.2022 0.0 -31.0638 -31.0638
47.95 -88.4801 0.0 -31.3769 -31.3769
47.96 -91.7456 0.0 -31.2044 -31.2044
47.97 -94.8192 0.0 -30.5538 -30.5538
47.98 -97.5252 0.0 -29.4718 -29.4718
47.99 -99.699 0.0 -28.031 -28.031
48 -101.194 0.0 -26.3351 -26.3351
48.01 -101.886 0.0 -24.4935 -24.4935
48.02 -101.682 0.0 -22.6274 -22.6274
48.03 -100.515 0.0 -20.8561 -20.8561
48.04 -98.3544 0.0 -19.2776 -19.2776
48.05 -95.2002 0.0 -17.9718 -17.9718
48.06 -91.0826 0.0 -16.9904 -16.9904
48.07 -86.0594 0.0 -16.3536 -16.3536
48.08 -80.2114 0.0 -16.0506 -16.0506
48.09 -73.6379 0.0 -16.0471 -16.0471
48.1 -66.4511 0.0 -16.2809 -16.2809
48.11 -58.7712 0.0 -16.6778 -16.6778
48.12 -50.7209 0.0 -17.1621 -17.1621
48.13 -42.4212 0.0 -17.6508 -17.6508
48.14 -33.9875 0.0 -18.0845 -18.0845
48.15 -25.5267 0.0 -18.4023 -18.4023
48.16 -17.1348 0.0 -18.5852 -18.5852
48.17 -8.89628 0.0 -18.6217 -18.6217
48.18 -0.883472 0.0 -18.5195 -18.5195
48.19 6.8431 0.0 -18.3221 -18.3221
48.2 14.2338 0.0 -18.0678 -18.0678
48.21 21.2487 0.0 -17.8157 -17.8157
48.22 27.856 0.0 -17.613 -17.613
48.23 34.0308 0.0 -17.5148 -17.5148
48.24 39.7536 0.0 -17.5496 -17.5496
48.25 45.0088 0.0 -17.7458 -17.7458
48.26 49.7835 0.0 -18.0995 -18.0995
48.27 54.067 0.0 -18.598 -18.598
48.28 57.8494 0.0 -19.2074 -19.2074
48.29 61.1214 0.0 -19.8874 -19.8874
48.3 63.8731 0.0 -20.5831 -20.5831
48.31 66.0943 0.0 -21.2443 -21.2443
48.32 67.7737 0.0 -21.8217 -21.8217
48.33 68.8987 0.0 -22.2727 -22.2727
48.34 69.4555 0.0 -22.5705 -22.5705
48.35 69.4294 0.0 -22.7084 -22.7084
48.36 68.8054 0.0 -22.6904 -22.6904
48.37 67.5686 0.0 -22.5316 -22.5316
48.38 65.7062 0.0 -22.2722 -22.2722
48.39 63.2082 0.0 -21.9522 -21.9522
48.4 60.07 0.0 -21.622 -21.622
48.41 56.2941 0.0 -21.3261 -21.3261
48.42 51.8924 0.0 -21.1064 -21.1064
48.43 46.8879 0.0 -20.9969 -20.9969
48.44 41.3169 0.0 -21.0209 -21.0209
48.45 35.2303 0.0 -21.1863 -21.1863
48.46 28.6939 0.0 -21.4849 -21.4849
48.47 21.7886 0.0 -21.9056 -21.9056
48.48 14.6096 0.0 -22.4156 -22.4156
48.49 7.26415 0.0 -22.9841 -22.9841
48.5 -0.130301 0.0 -23.5717 -23.5717
48.51 -7.44994 0.0 -24.1441 -24.1441
48.52 -14.5681 0.0 -24.6689 -24.6689
48.53 -21.3593 0.0 -25.1127 -25.1127
48.54 -27.7033 0.0 -25.4637 -25.4637
48.55 -33.4889 0.0 -25.7011 -25.7011
48.56 -38.6176 0.0 -25.8264 -25.8264
48.57 -43.0055 0.0 -25.8345 -25.8345
48.58 -46.5861 0.0 -25.7419 -25.7419
48.59 -49.3107 0.0 -25.5493 -25.5493
48.6 -51.1487 0.0 -25.2733 -25.2733
48.61 -52.0871 0.0 -24.9209 -24.9209
48.62 -52.1289 0.0 -24.5011 -24.5011
48.63 -51.2919 0.0 -24.0261 -24.0261
48.64 -49.6063 0.0 -23.4957 -23.4957
48.65 -47.1132 0.0 -22.9138 -22.9138
48.66 -43.8624 0.0 -22.2946 -22.2946
48.67 -39.9113 0.0 -21.6407 -21.6407
48.68 -35.3239 0.0 -20.9621 -20.9621
48.69 -30.1699 0.0 -20.2801 -20.2801
48.7 -24.5248 0.0 -19.6162 -19.6162
48.71 -18.47 0.0 -18.997 -18.997
48.72 -12.0926 0.0 -18.4544 -18.4544
48.73 -5.48574 0.0 -18.0283 -18.0283
48.74 1.25171 0.0 -17.7457 -17.7457
48.75 8.0157 0.0 -17.6477 -17.6477
48.76 14.6983 0.0 -17.7583 -17.7583
48.77 21.1895 0.0 -18.0905 -18.0905
48.78 27.3797 0.0 -18.6607 -18.6607
48.79 33.1626 0.0 -19.4546 -19.4546
48.8 38.4388 0.0 -20.4588 -20.4588
48.81 43.1192 0.0 -21.6402 -21.6402
48.82 47.1284 0.0 -22.9504 -22.9504
48.83 50.4083 0.0 -24.3373 -24.3373
48.84 52.9202 0.0 -25.7402 -25.7402
48.85 54.647 0.0 -27.093 -27.093
48.86 55.5937 0.0 -28.3357 -28.3357
48.87 55.7874 0.0 -29.4094 -29.4094
48.88 55.276 0.0 -30.268 -30.268
48.89 54.1258 0.0 -30.8778 -30.8778
48.9 52.4184 0.0 -31.2184 -31.2184
48.91 50.2471 0.0 -31.2871 -31.2871
48.92 47.7119 0.0 -31.0959 -31.0959
48.93 44.9161 0.0 -30.6731 -30.6731
48.94 41.961 0.0 -30.055 -30.055
48.95 38.9423 0.0 -29.2973 -29.2973
48.96 35.9466 0.0 -28.4466 -28.4466
48.97 33.0482 0.0 -27.5672 -27.5672
48.98 30.3075 0.0 -26.7155 -26.7155
48.99 27.769 0.0 -25.942 -25.942
49 25.4615 0.0 -25.2885 -25.2885
49.01 23.3976 0.0 -24.7926 -24.7926
49.02 21.575 0.0 -24.474 -24.474
49.03 19.9776 0.0 -24.3426 -24.3426
49.04 18.5774 0.0 -24.3974 -24.3974
49.05 17.3366 0.0 -24.6286 -24.6286
49.06 16.2099 0.0 -25.0149 -25.0149
49.07 15.1471 0.0 -25.5291 -25.5291
49.08 14.0955 0.0 -26.1415 -26.1415
49.09 13.003 0.0 -26.819 -26.819
49.1 11.82 0.0 -27.532 -27.532
49.11 10.5028 0.0 -28.2538 -28.2538
49.12 9.01525 0.0 -28.9633 -28.9633
49.13 7.33122 0.0 -29.6442 -29.6442
49.14 5.43649 0.0 -30.2835 -30.2835
49.15 3.33006 0.0 -30.8811 -30.8811
49.16 1.02508 0.0 -31.4361 -31.4361
49.17 -1.45091 0.0 -31.9581 -31.9581
49.18 -4.05634 0.0 -32.4517 -32.4517
49.19 -6.7368 0.0 -32.9272 -32.9272
49.2 -9.42684 0.0 -33.3932 -33.3932
49.21 -12.0525 0.0 -33.8485 -33.8485
49.22 -14.5344 0.0 -34.2956 -34.2956
49.23 -16.7913 0.0 -34.7217 -34.7217
49.24 -18.7434 0.0 -35.1136 -35.1136
49.25 -20.3165 0.0 -35.4505 -35.4505
49.26 -21.445 0.0 -35.705 -35.705
49.27 -22.0751 0.0 -35.8519 -35.8519
49.28 -22.167 0.0 -35.853 -35.853
49.29 -21.6962 0.0 -35.6828 -35.6828
49.3 -20.6542 0.0 -35.3168 -35.3168
49.31 -19.0483 0.0 -34.7347 -34.7347
49.32 -16.9005 0.0 -33.9345 -33.9345
49.33 -14.2455 0.0 -32.9155 -32.9155
49.34 -11.1284 0.0 -31.6976 -31.6976
49.35 -7.60213 0.0 -30.3149 -30.3149
49.36 -3.72489 0.0 -28.8011 -28.8011
49.37 0.442644 0.0 -27.2226 -27.2226
49.38 4.83945 0.0 -25.6295 -25.6295
49.39 9.40593 0.0 -24.0899 -24.0899
49.4 14.0851 0.0 -22.6651 -22.6651
49.41 18.8234 0.0 -21.4144 -21.4144
49.42 23.5706 0.0 -20.3826 -20.3826
49.43 28.2799 0.0 -19.5999 -19.5999
49.44 32.9074 0.0 -19.0864 -19.0864
49.45 37.4115 0.0 -18.8415 -18.8415
49.46 41.7525 0.0 -18.8465 -18.8465
49.47 45.8923 0.0 -19.0623 -19.0623
49.48 49.7948 0.0 -19.4398 -19.4398
49.49 53.4259 0.0 -19.9229 -19.9229
49.5 56.7547 0.0 -20.4457 -20.4457
49.51 59.7539 0.0 -20.9479 -20.9479
49.52 62.4016 0.0 -21.3686 -21.3686
49.53 64.6819 0.0 -21.6689 -21.6689
49.54 66.5857 0.0 -21.8117 -21.8117
49.55 68.1117 0.0 -21.7907 -21.7907
49.56 69.2662 0.0 -21.6102 -21.6102
49.57 70.0627 0.0 -21.2927 -21.2927
49.58 70.5209 0.0 -20.8819 -20.8819
49.59 70.6656 0.0 -20.4266 -20.4266
49.6 70.5249 0.0 -19.9869 -19.9869
49.61 70.1285 0.0 -19.6245 -19.6245
49.62 69.5057 0.0 -19.3897 -19.3897
49.63 68.6845 0.0 -19.3325 -19.3325
49.64 67.6903 0.0 -19.4803 -19.4803
49.65 66.5454 0.0 -19.8484 -19.8484
49.66 65.2696 0.0 -20.4296 -20.4296
49.67 63.8807 0.0 -21.1997 -21.1997
49.68 62.3962 0.0 -22.1222 -22.1222
49.69 60.8352 0.0 -23.1402 -23.1402
49.7 59.2198 0.0 -24.1978 -24.1978
49.71 57.5773 0.0 -25.2303 -25.2303
49.72 55.9415 0.0 -26.1825 -26.1825
49.73 54.353 0.0 -27.008 -27.008
49.74 52.8598 0.0 -27.6768 -27.6768
49.75 51.5154 0.0 -28.1664 -28.1664
49.76 50.3771 0.0 -28.4881 -28.4881
49.77 49.503 0.0 -28.664 -28.664
49.78 48.9483 0.0 -28.7283 -28.7283
49.79 48.7615 0.0 -28.7345 -28.7345
49.8 48.9797 0.0 -28.7447 -28.7447
49.81 49.6255 0.0 -28.8175 -28.8175
49.82 50.7032 0.0 -29.0082 -29.0082
49.83 52.1968 0.0 -29.3678 -29.3678
49.84 54.0692 0.0 -29.9272 -29.9272
49.85 56.2617 0.0 -30.7077 -30.7077
49.86 58.6964 0.0 -31.7084 -31.7084
49.87 61.2785 0.0 -32.9115 -32.9115
49.88 63.8999 0.0 -34.2819 -34.2819
49.89 66.4441 0.0 -35.7841 -35.7841
49.9 68.7906 0.0 -37.3606 -37.3606
49.91 70.8199 0.0 -38.9659 -38.9659
49.92 72.418 0.0 -40.553 -40.553
49.93 73.4798 0.0 -42.0868 -42.0868
49.94 73.9124 0.0 -43.5474 -43.5474
49.95 73.6372 0.0 -44.9272 -44.9272
49.96 72.5904 0.0 -46.2404 -46.2404
49.97 70.7235 0.0 -47.5115 -47.5115
49.98 68.0031 0.0 -48.7811 -48.7811
49.99 64.4092 0.0 -50.1012 -50.1012
50 59.935 0.0 -51.524 -51.524
