# SrXgui configration #
[Experiment]
maskfile = mask.npy
integrationspace = qspace
wavelength = 0.1835957
xbeamcenter = 1025.151
ybeamcenter = 1026.238
distance = 208.261
rotationd = -69.563
tiltd = 0.635
tthstepd = 0.02
qstep = 0.02

[Beamline]
fliphorizontal = False
flipvertical = False
xdimension = 2048
ydimension = 2048
xpixelsize = 0.2
ypixelsize = 0.2

[Others]
uncertaintyenable = True
sacorrectionenable = True
polcorrectionenable = True
polcorrectf = 0.99
brightpixelmask = True
darkpixelmask = True
avgmask = True
cropedges = 10, 10, 10, 10

#### start data
0 0 0
0.02 4016.65 359.581
0.04 4040.01 360.625
0.06 4127.38 364.503
0.08 4125.08 364.402
0.1 3936.83 355.99
0.12 3970.32 357.501
0.14 4180.23 366.829
0.16 3928.33 355.605
0.18 4274.28 370.933
0.2 4186.95 367.125
0.22 4501.09 380.648
0.24 4484.07 379.928
0.26 3152.25 318.548
0.28 3951.62 356.658
0.3 3860.61 352.527
0.32 4288.4 371.545
0.34 9772.75 560.883
0.36 13704.5 664.196
0.38 15525.5 706.948
0.4 28375.2 955.727
0.42 31771.1 1011.3
0.44 67689.7 1476.13
0.46 54811.6 1328.31
0.48 64151.7 1437.04
0.5 88749.1 1690.23
0.52 66581.9 1464
0.54 87871.3 1681.85
0.56 84758.4 1651.79
0.58 98054.1 1776.63
0.6 105855 1845.95
0.62 90149.5 1703.52
0.64 111861 1897.6
0.66 111167 1891.7
0.68 110509 1886.09
0.7 127722 2027.67
0.72 118586 1953.81
0.74 132322 2063.86
0.76 138386 2110.62
0.78 136655 2097.38
0.8 153205 2220.75
0.82 145926 2167.36
0.84 152741 2217.39
0.86 156843 2246.97
0.88 155733 2239.01
0.9 157655 2252.78
0.92 157631 2252.61
0.94 159323 2264.66
0.96 160148 2270.52
0.98 158765 2260.69
1 160583 2273.6
1.02 160611 2273.8
1.04 160293 2271.55
1.06 160492 2272.96
1.08 160140 2270.46
1.1 160452 2272.67
1.12 159938 2269.04
1.14 160272 2271.39
1.16 160606 2273.76
1.18 159866 2268.51
1.2 160122 2270.35
1.22 160061 2269.9
1.24 159256 2264.19
1.26 158582 2259.39
1.28 157978 2255.09
1.3 157194 2249.47
1.32 156016 2241.05
1.34 154835 2232.54
1.36 153013 2219.37
1.38 152115 2212.84
1.4 150042 2197.71
1.42 147738 2180.77
1.44 147032 2175.56
1.46 143935 2152.51
1.48 142350 2140.64
1.5 140546 2127.03
1.52 136896 2099.23
1.54 136446 2095.76
1.56 133632 2074.05
1.58 131699 2059
1.6 130222 2047.42
1.62 128191 2031.38
1.64 128052 2030.29
1.66 126082 2014.61
1.68 124637 2003.03
1.7 123669 1995.24
1.72 121892 1980.85
1.74 120963 1973.28
1.76 119495 1961.27
1.78 118142 1950.14
1.8 117423 1944.19
1.82 115586 1928.93
1.84 114476 1919.65
1.86 113367 1910.32
1.88 111721 1896.4
1.9 110760 1888.23
1.92 109066 1873.72
1.94 107838 1863.18
1.96 106331 1850.09
1.98 104548 1834.53
2 103835 1828.24
2.02 101881 1810.97
2.04 100424 1797.98
2.06 99794.8 1792.34
2.08 97990.1 1776.04
2.1 97071.5 1767.7
2.12 95341.1 1751.88
2.14 93651.1 1736.27
2.16 93127.9 1731.44
2.18 91076.6 1712.25
2.2 90354.9 1705.45
2.22 89272.7 1695.21
2.24 87940.2 1682.51
2.26 87696.1 1680.17
2.28 86356.5 1667.29
2.3 85814.9 1662.06
2.32 85079 1654.9
2.34 84012.3 1644.51
2.36 83851.7 1642.93
2.38 82679.6 1631.41
2.4 81987.7 1624.57
2.42 81579 1620.51
2.44 80635.7 1611.14
2.46 80492.3 1609.7
2.48 79337.5 1598.1
2.5 78697.6 1591.64
2.52 78373.2 1588.36
2.54 77200.7 1576.42
2.56 76848.2 1572.82
2.58 76220 1566.39
2.6 75380.1 1557.73
2.62 75375.6 1557.7
2.64 74274.6 1546.28
2.66 73963.5 1543.02
2.68 73494.5 1538.12
2.7 72636.5 1529.11
2.72 72753 1530.34
2.74 71669.6 1518.9
2.76 71228.9 1514.23
2.78 71085.2 1512.72
2.8 70275.6 1504.07
2.82 70366 1505.03
2.84 69710.2 1498
2.86 69443.2 1495.15
2.88 69706.2 1497.96
2.9 68861.7 1488.85
2.92 68704.5 1487.16
2.94 68291.6 1482.68
2.96 67441.5 1473.43
2.98 67150.5 1470.24
3.02 63694.5 1431.9
3.04 65686.8 1454.14
3.06 64970 1446.2
3.08 65225.1 1448.99
3.1 64328.5 1439.02
3.12 64072.4 1436.16
3.14 63845.7 1433.6
3.16 59754.8 1386.91
3.2 60761.9 1398.55
3.22 61971.3 1412.42
3.24 61881.8 1411.36
3.26 60946 1400.67
3.28 60461.8 1395.09
3.3 60351.5 1393.83
3.32 59378.6 1382.55
3.34 59717.8 1386.48
3.36 58674.9 1374.32
3.38 58256.6 1369.43
3.4 58277.4 1369.67
3.42 57449.2 1359.9
3.44 57083.3 1355.54
3.46 56602.7 1349.85
3.48 55047.1 1331.16
3.5 55436.2 1335.88
3.52 54704.4 1327.03
3.54 54192 1320.78
3.56 54070.6 1319.32
3.58 53315.1 1310.05
3.6 53327.3 1310.2
3.62 52525.1 1300.32
3.66 52038.6 1294.27
3.68 51687.6 1289.88
3.7 51661.8 1289.59
3.72 51386 1286.12
3.74 51111.7 1282.71
3.76 51040.9 1281.82
3.78 50477.9 1274.71
3.8 50177.8 1270.92
3.82 50140 1270.46
3.84 49459 1261.8
3.86 49368.7 1260.63
3.88 48981.5 1255.7
3.9 48528.4 1249.88
3.92 48662 1251.59
3.94 47976.7 1242.75
3.96 47947.1 1242.35
3.98 47756.1 1239.87
4 47359.4 1234.7
4.02 47373.6 1234.92
4.04 46874.2 1228.36
4.06 46584.7 1224.56
4.08 46656.8 1225.54
4.1 46139.3 1218.71
4.12 46106.2 1218.3
4.14 45913.3 1215.72
4.16 45564.8 1211.1
4.18 45704.7 1212.94
4.2 45113.8 1205.07
4.22 45073.1 1204.56
4.24 45157.9 1205.69
4.26 44771.6 1200.52
4.28 44862.4 1201.76
4.3 44531.7 1197.3
4.32 44397.8 1195.47
4.34 44252.8 1193.54
4.36 43755.9 1186.82
4.38 43529.3 1183.74
4.4 43480.9 1183.11
4.42 43112.5 1178.04
4.44 43254.7 1180
4.46 42738.1 1172.94
4.48 42635.6 1171.51
4.5 42782.6 1173.52
4.52 42254.2 1166.27
4.54 42269.2 1166.47
4.56 42079.2 1163.86
4.58 41789.1 1159.83
4.6 41796.8 1159.92
4.62 41329.4 1153.45
4.64 41239.9 1152.18
4.66 41223.1 1151.96
4.68 40868.1 1146.98
4.7 40739.9 1145.19
4.72 40685 1144.4
4.74 40518.6 1142.07
4.76 40658.7 1144.05
4.78 40496.9 1141.8
4.8 40375.1 1140.01
4.82 40429.2 1140.81
4.84 39960.6 1134.17
4.86 39969.9 1134.32
4.88 39915.8 1133.54
4.9 39568.5 1128.63
4.92 39669.7 1130.06
4.94 39327.1 1125.14
4.96 38686.6 1115.93
4.98 39275.6 1124.42
5 39074.9 1121.51
5.02 39153.4 1122.69
5.04 39025 1120.82
5.06 38852.6 1118.34
5.08 38970.9 1120.02
5.1 38501.5 1113.27
5.12 38178.7 1108.61
5.14 38643.6 1115.32
5.16 38517.6 1113.53
5.18 38648.9 1115.41
5.2 38487 1113.08
5.22 38405.1 1111.88
5.24 38503.5 1113.29
5.26 38024.7 1106.37
5.28 38020 1106.27
5.3 37957.2 1105.39
5.32 37676 1101.25
5.34 37719.5 1101.91
5.36 37413.7 1097.41
5.38 37278.8 1095.45
5.4 37420.8 1097.53
5.42 36952.8 1090.65
5.44 36942.7 1090.51
5.46 36822.3 1088.75
5.48 36628.1 1085.85
5.5 36591.9 1085.32
5.52 36490.1 1083.8
5.54 36343.3 1081.61
5.56 36374.7 1082.07
5.58 36208.3 1079.6
5.6 36142.9 1078.64
5.62 36132.2 1078.47
5.64 35891 1074.91
5.66 35813 1073.68
5.68 35769.5 1073.07
5.7 35496.3 1068.95
5.72 35647.9 1071.21
5.74 35272.8 1065.56
5.76 35151 1063.75
5.78 35239.6 1065.06
5.8 34887.3 1059.75
5.82 34463.2 1053.27
5.84 34098.9 1047.68
5.86 34534.7 1054.34
5.88 34615.4 1055.6
5.9 34304 1050.84
5.92 34155.5 1048.58
5.94 34217.8 1049.51
5.96 33818.1 1043.37
5.98 32945.1 1029.84
6 33289.4 1035.18
6.02 33593.5 1039.88
6.04 33605.8 1040.12
6.06 33502.7 1038.46
6.08 33384.1 1036.65
6.1 33458.7 1037.83
6.12 33147.3 1032.95
6.14 33072.7 1031.81
6.16 33031.8 1031.18
6.18 32734.7 1026.55
6.2 32653.1 1025.23
6.22 32494.9 1022.75
6.24 32302.2 1019.72
6.26 32395.1 1021.19
6.28 32157.3 1017.46
6.3 32065.7 1015.99
6.32 32137.3 1017.11
6.34 31873.4 1012.93
6.36 31797.5 1011.71
6.38 31731.3 1010.69
6.4 31421 1005.71
6.42 31439.9 1006.02
6.44 31319 1004.09
6.46 31118.3 1000.84
6.48 31215.6 1002.42
6.5 30919.9 997.664
6.52 30860.6 996.71
6.54 30944.7 998.043
6.56 30591.7 992.377
6.58 30632.3 993.002
6.6 30660.9 993.474
6.62 30424.8 989.665
6.64 30504.5 990.897
6.66 30356.8 988.559
6.68 30186.9 985.769
6.7 30234.7 986.541
6.72 29968.4 982.188
6.74 29885.2 980.816
6.76 29966.7 982.181
6.78 29639 976.77
6.8 29693.5 977.656
6.82 29640.4 976.804
6.84 29396 972.76
6.86 29474.4 974.046
6.88 29367.4 972.301
6.9 29229.6 970.024
6.92 29292 971.028
6.94 29068.7 967.348
6.96 29076.2 967.453
6.98 29079.5 967.528
7 28883.5 964.234
7.02 28893.5 964.416
7.04 28921.1 964.907
7.06 28672.6 960.684
7.08 28671.4 960.701
7.1 28613.7 959.732
7.12 28470.1 957.323
7.14 28488.8 957.618
7.16 28392.2 956.007
7.18 28304.6 954.549
7.2 28333 955.019
7.22 28087.6 950.872
7.24 28218.8 953.076
7.26 28187.8 952.567
7.28 27988 949.175
7.3 28062.8 950.413
7.32 28002.7 949.457
7.34 27844.3 946.726
7.36 27879.7 947.338
7.38 27759.2 945.307
7.4 27635.6 943.162
7.42 27690.1 944.127
7.44 27506.2 940.96
7.46 27435.5 939.794
7.48 27522.2 941.234
7.5 27351.5 938.325
7.52 27334.5 938.049
7.54 27378 938.796
7.56 27154.3 934.922
7.58 27171 935.231
7.6 27096.4 933.912
7.62 26975.4 931.864
7.64 27041.9 932.989
7.66 27038.3 932.946
7.68 26905.4 930.666
7.7 26949.7 931.39
7.72 26797.2 928.753
7.74 26874.5 930.11
7.76 26895.8 930.5
7.78 26683.2 926.802
7.8 26668 926.488
7.82 26700.5 927.111
7.84 26491.9 923.452
7.86 26476.2 923.203
7.88 26514.1 923.856
7.9 26357.8 921.115
7.92 26391.7 921.75
7.94 26290.4 919.951
7.96 26183.2 918.065
7.98 26218.7 918.689
8 26122.6 916.99
8.02 26047.6 915.73
8.04 26071.7 916.124
8.06 25955.9 914.075
8.08 25946.3 913.884
8.1 26022.9 915.269
8.12 25809.6 911.511
8.14 25854 912.243
8.16 25913.7 913.36
8.18 25671.8 909.077
8.2 25741.3 910.271
8.22 25771.2 910.823
8.24 25605.1 907.886
8.26 25651.2 908.73
8.28 25646.3 908.583
8.3 25509.1 906.173
8.32 25499.5 906.045
8.34 25477.2 905.542
8.36 25415 904.523
8.38 25338.2 903.14
8.4 25355 903.422
8.42 25237.9 901.33
8.44 25327.4 902.991
8.46 25329.4 902.934
8.48 25266.5 901.812
8.5 25297.2 902.45
8.52 25264.4 901.82
8.54 25192.9 900.517
8.56 25252.7 901.61
8.58 25098.5 898.839
8.6 25077.3 898.471
8.62 25106.7 899.031
8.64 24972.9 896.607
8.66 24921.3 895.737
8.68 24995 896.958
8.7 24839.5 894.212
8.72 24722.2 892.085
8.74 24768 892.868
8.76 24762.9 892.847
8.78 24670.2 891.161
8.8 24735.4 892.34
8.82 24664.1 891.061
8.84 24654.6 890.869
8.86 24647.1 890.683
8.88 24531 888.659
8.9 24522.4 888.469
8.92 24482.3 887.78
8.94 24344.9 885.217
8.96 24349 885.321
8.98 24332.4 885.05
9 24210.1 882.828
9.02 24222.7 883.016
9.04 24184.1 882.318
9.06 24076.4 880.357
9.08 24110.6 880.982
9.1 24085.2 880.526
9.12 24009.5 879.153
9.14 23991.6 878.81
9.16 23954.6 878.104
9.18 23849.4 876.218
9.2 23865.4 876.484
9.22 23801.6 875.31
9.24 23722.5 873.873
9.26 23713.5 873.732
9.28 23721.7 873.821
9.3 23574.3 871.157
9.32 23554.6 870.782
9.34 23623.5 872.037
9.36 23514.3 870.022
9.38 23471.7 869.232
9.4 23476.9 869.319
9.42 23363 867.232
9.44 23381.6 867.567
9.46 23342.2 866.859
9.48 23222.4 864.532
9.5 23226.6 864.716
9.52 23153.8 863.334
9.54 23064.7 861.671
9.56 23090.3 862.149
9.58 23034.2 861.135
9.6 22973 859.912
9.62 22976.7 860.032
9.64 22943.7 859.421
9.66 22872.8 858.048
9.68 22925.1 859.022
9.7 22846.7 857.589
9.72 22793 856.575
9.74 22747.8 855.713
9.76 22771.2 856.142
9.78 22624.7 853.387
9.8 22696.2 854.81
9.82 22623.8 853.353
9.84 22591.3 852.786
9.86 22525.6 851.541
9.88 22614.3 853.21
9.9 22467.6 850.444
9.92 22521.6 851.421
9.94 22476.6 850.618
9.96 22386 848.91
9.98 22326.3 847.747
10 22392.6 849.027
10.02 22267.5 846.657
10.04 22311.6 847.465
10.06 22308.1 847.405
10.08 22224.1 845.793
10.1 22183.5 845.088
10.12 22308.6 847.418
10.14 22118.1 843.808
10.16 22137.8 844.16
10.18 22184.3 845.096
10.2 22065.4 842.755
10.22 22045.4 842.432
10.24 22123.7 843.899
10.26 21976.6 841.102
10.28 21999.5 841.536
10.3 22049.6 842.501
10.32 21923.4 840.052
10.34 21884.5 839.33
10.36 21969.5 840.982
10.38 21829.5 838.204
10.4 21796.8 837.68
10.42 21904.7 839.713
10.44 21735.7 836.473
10.46 21694.8 835.693
10.48 21791.2 837.514
10.5 21683 835.453
10.52 21632.1 834.489
10.54 21708.5 835.941
10.56 21612.7 834.103
10.58 21534.8 832.595
10.6 21582.5 833.509
10.62 21518.5 832.268
10.64 21478.2 831.47
10.66 21491 831.753
10.68 21488.1 831.66
10.7 21380.3 829.645
10.72 21424.5 830.46
10.74 21416.1 830.299
10.76 21303.1 828.106
10.78 21295.5 827.963
10.8 21362 829.259
10.82 21224.1 826.531
10.84 21229.3 826.656
10.86 21269.9 827.501
10.88 21125.5 824.623
10.9 21072.7 823.638
10.92 21126.1 824.648
10.94 21080 823.775
10.96 21032 822.784
10.98 21053.9 823.27
11 21038.4 822.97
11.02 20946.4 821.114
11.04 20935.3 820.923
11.06 20962.6 821.437
11.08 20812.6 818.526
11.1 20864.1 819.514
11.12 20846.9 819.212
11.14 20692.1 816.129
11.16 20691.9 816.146
11.18 20703.1 816.416
11.2 20567.5 813.644
11.22 20609.6 814.544
11.24 20604.5 814.372
11.26 20573.9 813.842
11.28 20450.3 811.339
11.3 20463.1 811.611
11.32 20425.3 810.858
11.34 20358.4 809.53
11.36 20381.6 809.987
11.38 20377.1 809.884
11.4 20256.9 807.509
11.42 20312.9 808.674
11.44 20338.5 809.108
11.46 20181.5 806.032
11.48 20160.2 805.555
11.5 20178.8 805.938
11.52 20102.8 804.416
11.54 20047.6 803.371
11.56 20055.4 803.481
11.58 20019.1 802.769
11.6 19927.3 800.954
11.62 19920.2 800.725
11.64 19982.9 802.072
11.66 19834.9 799.052
11.68 19813.2 798.618
11.7 19840.6 799.169
11.72 19741 797.139
11.74 19744.8 797.275
11.76 19728.4 796.927
11.78 19733 797.017
11.8 19611.8 794.575
11.82 19631.2 794.956
11.84 19649.7 795.296
11.86 19525.3 792.807
11.88 19553.2 793.406
11.9 19523.4 792.742
11.92 19488 792.033
11.94 19454.8 791.356
11.96 19435.6 790.986
11.98 19427.4 790.859
12 19368.6 789.599
12.02 19343.7 789.07
12.04 19382.6 789.925
12.06 19282.8 787.873
12.08 19283 787.883
12.1 19266.4 787.59
12.12 19240.1 786.909
12.14 19194.3 786.075
12.16 19197.3 786.101
12.18 19165.3 785.477
12.2 19086.9 783.897
12.22 19088.2 783.812
12.24 19102.1 784.173
12.26 19033.2 782.787
12.28 19005.1 782.13
12.3 19005.7 782.217
12.32 18986.8 781.781
12.34 18953.6 781.081
12.36 18939.9 780.829
12.38 18917.7 780.368
12.4 18900 780.046
12.42 18859.4 779.124
12.44 18841.7 778.813
12.46 18805.3 778.052
12.48 18752.1 776.912
12.5 18767.7 777.309
12.52 18770 777.309
12.54 18679.5 775.425
12.56 18684.7 775.547
12.58 18646 774.805
12.6 18674.5 775.296
12.62 18602.4 773.85
12.64 18584.3 773.45
12.66 18617.3 774.092
12.68 18529.4 772.341
12.7 18499.8 771.723
12.72 18497.5 771.683
12.74 18518.3 772.074
12.76 18420.7 770.013
12.78 18428.1 770.251
12.8 18433.7 770.293
12.82 18375.9 769.098
12.84 18373.5 769.01
12.86 18317.3 767.895
12.88 18362 768.873
12.9 18290.6 767.269
12.92 18278.9 767.076
12.94 18286.2 767.206
12.96 18258.6 766.657
12.98 18228.1 766.051
13 18198 765.399
13.02 18208.8 765.62
13.04 18120.1 763.708
13.06 18098 763.274
13.08 18138.2 764.102
13.1 18130.7 763.946
13.12 18037.2 761.979
13.14 18011.8 761.465
13.16 18032.9 761.93
13.18 17966.8 760.511
13.2 17928 759.661
13.22 17928.6 759.674
13.24 17959.5 760.38
13.26 17894.3 758.939
13.28 17849.1 758.043
13.3 17856.7 758.124
13.32 17833.6 757.737
13.34 17817.9 757.343
13.36 17792.7 756.753
13.38 17861.2 758.315
13.4 17793.4 756.825
13.42 17735 755.595
13.44 17771.8 756.327
13.46 17801.7 756.995
13.48 17648.2 753.725
13.5 17663.9 754.096
13.52 17687.6 754.517
13.54 17698.1 754.81
13.56 17615 753.036
13.58 17577 752.186
13.6 17610.3 752.913
13.62 17584.7 752.377
13.64 17494.4 750.441
13.66 17546.9 751.561
13.68 17560.1 751.862
13.7 17478.4 750.089
13.72 17451.6 749.503
13.74 17445.9 749.439
13.76 17490.6 750.355
13.78 17402 748.407
13.8 17347 747.323
13.82 17392.8 748.225
13.84 17407.5 748.58
13.86 17322.7 746.697
13.88 17327.9 746.899
13.9 17341 747.106
13.92 17315 746.564
13.94 17211.7 744.34
13.96 17244.9 745.014
13.98 17231.6 744.808
14 17214.1 744.399
14.02 17164.7 743.309
14.04 17108.4 742.174
14.06 17125.1 742.452
14.08 17094.2 741.776
14.1 17070.8 741.269
14.12 17072.7 741.325
14.14 17066.7 741.212
14.16 17043.6 740.703
14.18 16983.7 739.433
14.2 16985.8 739.379
14.22 16965 739.029
14.24 16912.4 737.88
14.26 16881.7 737.112
14.28 16859.8 736.697
14.3 16880.9 737.178
14.32 16847 736.4
14.34 16770.8 734.703
14.36 16781.6 735.034
14.38 16814.4 735.715
14.4 16761.4 734.503
14.42 16720.6 733.72
14.44 16706.5 733.339
14.46 16716.7 733.607
14.48 16658.7 732.236
14.5 16634.5 731.813
14.52 16615.8 731.299
14.54 16622.3 731.519
14.56 16596.5 730.937
14.58 16538.9 729.601
14.6 16552.4 729.938
14.62 16540.1 729.758
14.64 16548.3 729.815
14.66 16468.5 728.138
14.68 16434.5 727.34
14.7 16484.8 728.478
14.72 16454.8 727.779
14.74 16401 726.647
14.76 16379.6 726.071
14.78 16367 725.895
14.8 16403.3 726.637
14.82 16296.7 724.311
14.84 16298.5 724.33
14.86 16292.6 724.216
14.88 16308.8 724.558
14.9 16222.4 722.609
14.92 16201.4 722.193
14.94 16214.9 722.469
14.96 16183.2 721.776
14.98 16168.7 721.415
15 16106.7 720.083
15.02 16082.8 719.505
15.04 16076.9 719.407
15.06 16067.1 719.181
15.08 16012.3 717.9
15.1 16017.6 718.095
15.12 16011.2 717.872
15.14 16036.7 718.526
15.16 15931.1 716.099
15.18 15944.9 716.45
15.2 15913.2 715.746
15.22 15918.8 715.868
15.24 15883.5 714.992
15.26 15857.3 714.438
15.28 15850.7 714.279
15.3 15842.5 714.166
15.32 15832.3 713.878
15.34 15799.1 713.163
15.36 15786.8 712.877
15.38 15791.9 712.984
15.4 15780.8 712.721
15.42 15747.4 711.939
15.44 15719.6 711.402
15.46 15696.3 710.8
15.48 15720.5 711.402
15.5 15680.6 710.424
15.52 15625.5 709.292
15.54 15636 709.4
15.56 15626.3 709.271
15.58 15645 709.634
15.6 15586.7 708.37
15.62 15547.2 707.376
15.64 15527.9 707.051
15.66 15518 706.785
15.68 15555.9 707.613
15.7 15483.9 706.056
15.72 15456.7 705.347
15.74 15479.8 705.889
15.76 15466 705.525
15.78 15434.1 704.945
15.8 15378.7 703.621
15.82 15375.5 703.488
15.84 15389.6 703.838
15.86 15385.5 703.771
15.88 15315.6 702.169
15.9 15264 700.914
15.92 15290.3 701.566
15.94 15288.2 701.519
15.96 15292.9 701.553
15.98 15220.7 700.066
16 15223 700.042
16.02 15210.7 699.765
16.04 15211.7 699.712
16.06 15191.9 699.321
16.08 15166.2 698.677
16.1 15119.2 697.706
16.12 15116.7 697.553
16.14 15110.2 697.461
16.16 15120.8 697.633
16.18 15070.3 696.493
16.2 15038.1 695.817
16.22 15037.3 695.741
16.24 15013.1 695.134
16.26 15025.6 695.534
16.28 14986.1 694.525
16.3 14944.3 693.595
16.32 14956.1 693.868
16.34 14945.1 693.608
16.36 14943.5 693.552
16.38 14912.3 692.836
16.4 14881.6 692.141
16.42 14852.7 691.448
16.44 14859.9 691.636
16.46 14828.2 690.887
16.48 14799.8 690.266
16.5 14781.1 689.773
16.52 14763.6 689.348
16.54 14784.2 689.846
16.56 14791.7 690.061
16.58 14726.2 688.484
16.6 14743.1 688.94
16.62 14714.7 688.204
16.64 14696.4 687.791
16.66 14728.4 688.574
16.68 14643.8 686.57
16.7 14664.7 687.075
16.72 14632.6 686.299
16.74 14614.4 685.92
16.76 14620 686.001
16.78 14581.2 685.191
16.8 14559 684.519
16.82 14555.8 684.539
16.84 14538.3 684.12
16.86 14540.8 684.122
16.88 14526.2 683.902
16.9 14469.6 682.44
16.92 14466.2 682.38
16.94 14485 682.804
16.96 14440.8 681.848
16.98 14441.8 681.798
17 14444.6 681.91
17.02 14380.7 680.405
17.04 14400.3 680.821
17.06 14371.5 680.183
17.08 14365.1 680.053
17.1 14363.2 679.925
17.12 14316.6 678.931
17.14 14305.5 678.541
17.16 14307.5 678.658
17.18 14275.5 677.815
17.2 14265.5 677.749
17.22 14273.4 677.816
17.24 14207.5 676.224
17.26 14211.8 676.409
17.28 14195.7 675.943
17.3 14164.9 675.265
17.32 14182.8 675.732
17.34 14200.7 676.058
17.36 14121.8 674.247
17.38 14118.3 674.162
17.4 14085.8 673.371
17.42 14080.4 673.275
17.44 14091.3 673.522
17.46 14089.7 673.412
17.48 14047.5 672.474
17.5 14042.8 672.339
17.52 14012.9 671.583
17.54 14010.4 671.63
17.56 14009 671.493
17.58 14008.2 671.532
17.6 13947.5 670.111
17.62 13923.3 669.479
17.64 13946.7 670.011
17.66 13907.8 669.143
17.68 13903 669.001
17.7 13935.5 669.719
17.72 13861.6 667.966
17.74 13846.1 667.696
17.76 13832.5 667.243
17.78 13834.8 667.406
17.8 13823.7 667.073
17.82 13820.3 667.024
17.84 13837.4 667.458
17.86 13782.8 666.052
17.88 13734.5 664.894
17.9 13761.5 665.568
17.92 13720.5 664.591
17.94 13724.1 664.691
17.96 13721 664.562
17.98 13716.7 664.508
18 13676.1 663.535
18.02 13663.7 663.245
18.04 13638.2 662.541
18.06 13640.5 662.653
18.08 13631.1 662.351
18.1 13628.2 662.343
18.12 13578.3 661.169
18.14 13580 661.147
18.16 13557.1 660.663
18.18 13564.8 660.749
18.2 13547.2 660.451
18.22 13528 659.862
18.24 13547.6 660.341
18.26 13496.8 659.142
18.28 13486.4 658.978
18.3 13456.1 658.097
18.32 13469.1 658.498
18.34 13429.8 657.49
18.36 13443.6 657.826
18.38 13405 656.92
18.4 13399.9 656.755
18.42 13376.9 656.215
18.44 13374.5 656.176
18.46 13357.1 655.738
18.48 13322.8 654.87
18.5 13327.3 655.003
18.52 13315.6 654.698
18.54 13310.8 654.568
18.56 13298.6 654.254
18.58 13272.2 653.65
18.6 13245.3 652.955
18.62 13263.1 653.396
18.64 13228.5 652.545
18.66 13221.4 652.4
18.68 13203.1 651.951
18.7 13211.5 652.101
18.72 13197.6 651.816
18.74 13159 650.828
18.76 13145.1 650.429
18.78 13131.6 650.218
18.8 13139.5 650.347
18.82 13097.9 649.324
18.84 13086 649.113
18.86 13079.6 648.933
18.88 13079.6 648.811
18.9 13054.7 648.225
18.92 13025.7 647.592
18.94 13007.1 647.091
18.96 12991.6 646.709
18.98 12979.5 646.339
19 12941.1 645.467
19.02 12950.8 645.656
19.04 12953.6 645.729
19.06 12928.7 645.123
19.08 12892.5 644.239
19.1 12899.1 644.337
19.12 12847.2 643.055
19.14 12845.7 643.157
19.16 12836.8 642.787
19.18 12822.1 642.45
19.2 12795.8 641.848
19.22 12791.2 641.672
19.24 12795.6 641.741
19.26 12785.4 641.602
19.28 12752.9 640.685
19.3 12733.1 640.243
19.32 12720.6 639.862
19.34 12718.4 639.919
19.36 12696 639.247
19.38 12671.5 638.647
19.4 12649.8 638.166
19.42 12648.8 638.12
19.44 12632.2 637.643
19.46 12660.4 638.436
19.48 12604.3 636.959
19.5 12586 636.525
19.52 12551.8 635.598
19.54 12531.4 635.123
19.56 12558.3 635.816
19.58 12542.7 635.41
19.6 12514.4 634.698
19.62 12529.7 635.07
19.64 12508.7 634.507
19.66 12486.9 633.991
19.68 12480.8 633.869
19.7 12471.4 633.663
19.72 12441.3 632.818
19.74 12423.7 632.367
19.76 12402.8 631.937
19.78 12381.6 631.216
19.8 12367.4 630.988
19.82 12382.5 631.334
19.84 12364.7 630.879
19.86 12326.5 629.96
19.88 12317.7 629.655
19.9 12311.3 629.538
19.92 12286 628.91
19.94 12282.9 628.853
19.96 12267.7 628.373
19.98 12243.6 627.739
20 12231.6 627.575
20.02 12253.8 628.006
20.04 12221.6 627.287
20.06 12194.7 626.528
20.08 12169 625.882
20.1 12166.4 625.853
20.12 12185.8 626.255
20.14 12147.6 625.32
20.16 12128.4 624.845
20.18 12121.8 624.68
20.2 12102.5 624.117
20.22 12074.1 623.438
20.24 12045.2 622.739
20.26 12059.2 623.027
20.28 12016.9 621.925
20.3 12030 622.28
20.32 12014.7 621.932
20.34 12007.2 621.743
20.36 11967 620.62
20.38 11957.8 620.442
20.4 11948.1 620.198
20.42 11927.1 619.597
20.44 11928.5 619.671
20.46 11895.8 618.792
20.48 11888.3 618.643
20.5 11866.1 617.961
20.52 11873 618.276
20.54 11845 617.492
20.56 11849.5 617.604
20.58 11858.6 617.873
20.6 11825.1 616.961
20.62 11837.7 617.299
20.64 11811.4 616.686
20.66 11792 616.064
20.68 11776.3 615.745
20.7 11772.7 615.566
20.72 11750.4 615.04
20.74 11729.5 614.444
20.76 11716.5 614.145
20.78 11702.4 613.785
20.8 11688.2 613.32
20.82 11667.5 612.909
20.84 11659.9 612.647
20.86 11637.3 612.02
20.88 11626.3 611.764
20.9 11628.4 611.875
20.92 11595.2 610.989
20.94 11582 610.552
20.96 11578.9 610.551
20.98 11579.4 610.501
21 11583.1 610.591
21.02 11566.7 610.18
21.04 11538.5 609.484
21.06 11534 609.312
21.08 11497.5 608.365
21.1 11501.2 608.498
21.12 11488.6 608.111
21.14 11460.9 607.367
21.16 11438.8 606.838
21.18 11423.1 606.474
21.2 11407.1 605.902
21.22 11407.1 605.968
21.24 11406.3 605.955
21.26 11405.4 605.943
21.28 11400.2 605.774
21.3 11376.7 605.148
21.32 11359 604.724
21.34 11338.6 604.143
21.36 11314.5 603.526
21.38 11336.1 604.075
21.4 11295.5 602.981
21.42 11282 602.647
21.44 11282 602.654
21.46 11257.4 601.996
21.48 11222.7 601.017
21.5 11208.6 600.691
21.52 11213.8 600.819
21.54 11200.9 600.447
21.56 11174.7 599.737
21.58 11165.3 599.462
21.6 11134.1 598.746
21.62 11130.4 598.557
21.64 11097.5 597.785
21.66 11107.4 597.867
21.68 11125.9 598.483
21.7 11083.6 597.249
21.72 11102.3 597.847
21.74 11069 596.936
21.76 11071.4 596.95
21.78 11040.5 596.17
21.8 11026.5 595.817
21.82 11005.7 595.236
21.84 11028.6 595.779
21.86 11002.8 595.146
21.88 10993.3 594.873
21.9 10965.9 594.148
21.92 10972.7 594.313
21.94 10956.3 593.85
21.96 10939.5 593.433
21.98 10928.6 593.086
22 10920.5 592.933
22.02 10915.4 592.735
22.04 10881.8 591.9
22.06 10863.6 591.415
22.08 10864.5 591.328
22.1 10866.5 591.48
22.12 10849.2 590.907
22.14 10839.2 590.743
22.16 10820.1 590.181
22.18 10777 588.971
22.2 10801.9 589.711
22.22 10773 588.808
22.24 10776.9 589.012
22.26 10754 588.39
22.28 10743.1 588.037
22.3 10741.8 588.003
22.32 10713.6 587.279
22.34 10731.5 587.806
22.36 10727.7 587.616
22.38 10707.7 587.105
22.4 10691.9 586.682
22.42 10636.9 585.205
22.44 10645.3 585.315
22.46 10629.9 584.975
22.48 10613.6 584.553
22.5 10616.9 584.588
22.52 10586.3 583.757
22.54 10608 584.344
22.56 10593.8 584.034
22.58 10556.4 582.928
22.6 10548.4 582.716
22.62 10540 582.454
22.64 10516.3 581.831
22.66 10500.5 581.44
22.68 10505.3 581.514
22.7 10491.7 581.106
22.72 10472.9 580.617
22.74 10451.2 580.035
22.76 10444.5 579.865
22.78 10436.8 579.556
22.8 10430.6 579.556
22.82 10433 579.409
22.84 10408.6 578.857
22.86 10390 578.396
22.88 10388.9 578.327
22.9 10372.1 577.804
22.92 10338.8 576.863
22.94 10341.9 576.982
22.96 10318.5 576.344
22.98 10329.7 576.638
23 10312.7 576.102
23.02 10310.4 576.111
23.04 10290.5 575.577
23.06 10270.4 574.979
23.08 10257.7 574.651
23.1 10246 574.239
23.12 10242.1 574.213
23.14 10222.4 573.671
23.16 10218.5 573.462
23.18 10199 573.011
23.2 10194.8 572.899
23.22 10173.4 572.307
23.24 10175.1 572.26
23.26 10160.5 571.907
23.28 10155.9 571.79
23.3 10146.6 571.562
23.32 10125.2 570.836
23.34 10094.7 570.091
23.36 10056.4 568.926
23.38 10072.3 569.395
23.4 10069.2 569.344
23.42 10061.1 569.186
23.44 10073.3 569.41
23.46 10042.4 568.543
23.48 10017 567.82
23.5 10010.1 567.713
23.52 9986.32 566.921
23.54 9931.32 565.45
23.56 9950.88 566.023
23.58 9950.07 565.917
23.6 9941.03 565.644
23.62 9921.32 565.158
23.64 9914.89 564.963
23.66 9908.36 564.737
23.68 9900.69 564.529
23.7 9878.28 563.965
23.72 9866.09 563.521
23.74 9878.78 563.863
23.76 9875.68 563.896
23.78 9870.91 563.702
23.8 9819.86 562.181
23.82 9826.41 562.46
23.84 9789.49 561.344
23.86 9778.02 560.963
23.88 9757.05 560.488
23.9 9755.79 560.42
23.92 9790.71 561.293
23.94 9769.29 560.795
23.96 9722.11 559.392
23.98 9718.74 559.43
24 9726.42 559.556
24.02 9735.78 559.834
24.04 9715.68 559.258
24.06 9668.07 557.88
24.08 9698.98 558.721
24.1 9661.96 557.632
24.12 9642.46 557.169
24.14 9621.51 556.535
24.16 9612 556.213
24.18 9609.51 556.218
24.2 9613.38 556.221
24.22 9598.82 555.9
24.24 9577.75 555.293
24.26 9587.84 555.524
24.28 9548.52 554.385
24.3 9530.29 553.899
24.32 9533.28 554.011
24.34 9537.24 554.009
24.36 9472.6 552.266
24.38 9527.18 553.79
24.4 9482.21 552.453
24.42 9439.11 551.226
24.44 9454.32 551.744
24.46 9448.32 551.418
24.48 9385.03 549.701
24.5 9403.79 550.117
24.52 9404.29 550.152
24.54 9393.62 549.986
24.56 9403.06 550.072
24.58 9364.63 549.161
24.6 9368.68 549.119
24.62 9359.61 548.895
24.64 9356.27 548.781
24.66 9334.83 548.165
24.68 9295.92 547.064
24.7 9322.95 547.821
24.72 9310.88 547.457
24.74 9320.73 547.695
24.76 9279.37 546.654
24.78 9287.09 546.607
24.8 9248.87 545.747
24.82 9278.34 546.505
24.84 9241.42 545.434
24.86 9211.07 544.556
24.88 9199.3 544.116
24.9 9203.56 544.289
24.92 9190.87 543.922
24.94 9186.84 543.768
24.96 9159.91 543.05
24.98 9161.64 543.05
25 9129.96 542.177
25.02 9137.53 542.306
25.04 9112.67 541.684
25.06 9111.51 541.494
25.08 9088.31 540.868
25.1 9087.55 540.913
25.12 9083.79 540.717
25.14 9047.37 539.677
25.16 9087.62 540.884
25.18 9066.29 540.26
25.2 9059.36 539.975
25.22 9002.55 538.309
25.24 9007.19 538.466
25.26 9018.75 538.899
25.28 9009.15 538.501
25.3 8982.21 537.725
25.32 8987.69 537.961
25.34 9009.07 538.446
25.36 8956.43 536.933
25.38 8923.54 535.944
25.4 8933.9 536.291
25.42 8947.13 536.674
25.44 8911.6 535.577
25.46 8843.08 533.566
25.48 8894.34 535.083
25.5 8894.9 535.058
25.52 8854.99 533.946
25.54 8868.15 534.26
25.56 8862.98 534.129
25.58 8841.5 533.536
25.6 8832.61 533.221
25.62 8810.34 532.615
25.64 8793.72 532.008
25.66 8781.85 531.634
25.68 8719.68 529.81
25.7 8782.7 531.708
25.72 8795.45 532.115
25.74 8791.82 531.96
25.76 8808.7 532.47
25.78 8853.59 533.853
25.8 8888.29 535.061
25.82 8853.08 533.695
25.84 8852.89 533.874
25.86 8814.67 532.726
25.88 8792.17 531.957
25.9 8803.33 532.382
25.92 8768.67 531.202
25.94 8826.78 533.023
25.96 8836.92 533.391
25.98 8812.42 532.744
26 8817.69 532.678
26.02 8836.76 533.363
26.04 8829.1 533.101
26.06 8817.68 532.75
26.08 8838.27 533.462
26.1 8825.53 532.942
26.12 8840.15 533.4
26.14 8842.25 533.604
26.16 8835.06 533.236
26.18 8867.24 534.399
26.2 8848.22 533.626
26.22 8790.23 531.887
26.24 8821.16 532.937
26.26 8825.54 532.958
26.28 8781.38 531.594
26.3 8760.95 531.244
26.32 8768.23 531.16
26.34 8765.54 531.218
26.36 8762.36 531.042
26.38 8744.49 530.639
26.4 8736.89 530.296
26.42 8718 529.755
26.44 8729.54 529.977
26.46 8741.77 530.551
26.48 8738.62 530.475
26.5 8715.19 529.552
26.52 8691.96 529.03
26.54 8686.58 528.728
26.56 8673.26 528.444
26.58 8641.89 527.459
26.6 8629.88 527.146
26.62 8635.57 527.141
26.64 8621.78 526.852
26.66 8568.16 525.131
26.68 8560.88 524.927
26.7 8531.31 524.125
26.72 8533.01 524.078
26.74 8521.79 523.721
26.76 8506.65 523.415
26.78 8509.47 523.268
26.8 8568.75 525.287
26.82 8512.73 523.534
26.84 8508.51 523.214
26.86 8486.6 522.742
26.88 8460.32 521.875
26.9 8455.08 521.681
26.92 8494.61 522.967
26.94 8463.68 521.93
26.96 8428.71 520.837
26.98 8461.2 521.868
27 8426.27 520.935
27.02 8400.03 519.952
27.04 8371.76 519.067
27.06 8403.79 520.187
27.08 8406.67 520.126
27.1 8379.52 519.407
27.12 8330.04 517.854
27.14 8345.85 518.28
27.16 8288.06 516.469
27.18 8264.95 515.878
27.2 8296.93 516.923
27.22 8315.61 517.198
27.24 8249.27 515.484
27.26 8311.09 517.022
27.28 8294.72 516.778
27.3 8252.24 515.411
27.32 8277.2 516.248
27.34 8285.82 516.408
27.36 8240.97 515.052
27.38 8127.64 511.475
27.4 8172.33 512.965
27.42 8198.59 513.733
27.44 8245.93 515.154
27.46 8193.9 513.664
27.48 8146.23 511.97
27.5 8152.85 512.418
27.52 8156.2 512.333
27.54 8107.68 510.999
27.56 8091.01 510.267
27.58 8082.04 510.063
27.6 8148.6 512.123
27.62 8118.96 511.228
27.64 8052.2 509.184
27.66 8065.28 509.531
27.68 8031.41 508.538
27.7 8052.4 509.02
27.72 8032.67 508.563
27.74 7977.07 506.695
27.76 7966.38 506.458
27.78 7981.05 506.771
27.8 7993.92 507.386
27.82 8031.09 508.461
27.84 7941.95 505.551
27.86 7884.61 503.96
27.88 7870.25 503.327
27.9 7930.35 505.107
27.92 7976.76 506.753
27.94 7924.54 505.283
27.96 7928.76 505.012
27.98 7897.02 504.185
28 7849.66 502.802
28.02 7870.66 503.399
28.04 7913.51 504.495
28.06 7813.38 501.589
28.08 7783.64 500.516
28.1 7774.71 500.347
28.12 7775.69 500.314
28.14 7761.14 499.71
28.16 7822.44 501.889
28.18 7803.28 501.143
28.2 7832.78 502.137
28.22 7823.6 501.746
28.24 7712.88 498.388
28.26 7638.9 495.893
28.28 7682.1 497.24
28.3 7757.43 499.736
28.32 7763.19 499.93
28.34 7702.22 497.976
28.36 7666.5 496.793
28.38 7667.72 496.732
28.4 7643.3 496.003
28.42 7649.44 496.205
28.44 7670.62 496.971
28.46 7646.37 496.077
28.48 7644.51 495.987
28.5 7575.11 493.878
28.52 7547.09 492.898
28.54 7540.95 492.586
28.56 7562.95 493.599
28.58 7544.3 492.657
28.6 7547 492.977
28.62 7526.42 492.103
28.64 7442.65 489.511
28.66 7543.2 492.804
28.68 7540.43 492.58
28.7 7507.74 491.661
28.72 7539.52 492.626
28.74 7499.39 491.281
28.76 7382.26 487.638
28.78 7480.75 490.554
28.8 7450.51 489.722
28.82 7363.69 486.971
28.84 7349.17 486.371
28.86 7378.94 487.37
28.88 7335.47 485.926
28.9 7253.67 483.2
28.92 7361.12 486.869
28.94 7391.22 487.699
28.96 7375.82 487.316
28.98 7344.71 486.259
29 7273.64 483.863
29.02 7316.5 485.298
29.04 7352.48 486.498
29.06 7380.86 487.419
29.08 7348.47 486.453
29.1 7310.18 485.031
29.12 7336.21 485.988
29.14 7236.65 482.639
29.16 7216.45 481.913
29.18 7227.37 482.38
29.2 7162.13 480.303
29.22 7186.71 480.86
29.24 7232.11 482.637
29.26 7177.87 480.52
29.28 7128.72 479.136
29.3 7071.45 477.092
29.32 7205.93 481.489
29.34 7228.87 482.399
29.36 7176.08 480.698
29.38 7129 478.902
29.4 7080.97 477.445
29.42 7105.91 478.468
29.44 7053.18 476.284
29.46 7123.31 478.837
29.48 7013.54 475.223
29.5 7206.59 481.733
29.52 7211.13 481.66
29.54 7078.91 477.425
29.56 6983.08 474.192
29.58 7022.3 475.294
29.6 6989.32 474.498
29.62 7103.8 478.193
29.64 7026.51 475.524
29.66 6942.88 472.729
29.68 6812.23 468.23
29.7 6884.16 470.914
29.72 6925.24 472.101
29.74 7061.36 476.667
29.76 6956.77 473.249
29.78 6954 473.087
29.8 6935.38 472.489
29.82 6912.9 471.959
29.84 7009.45 474.973
29.86 6921.33 471.949
29.88 6909.36 471.645
29.9 6822.52 468.695
29.92 6841.25 469.207
29.94 6907.33 471.543
29.96 6943.22 472.789
29.98 6824.88 468.792
30 6839.27 469.296
30.02 6820.2 468.495
30.04 6711.48 464.689
30.06 6668.11 463.506
30.08 6721.19 464.977
30.1 6815.91 468.527
30.12 6845.2 469.079
30.14 6709.44 464.927
30.16 6678.19 463.679
30.18 6939.99 472.583
30.2 6654.8 463.021
30.22 6505.01 457.564
30.24 6558.98 459.541
30.26 6648.53 462.713
30.28 6670.01 463.246
30.3 6584.16 460.279
30.32 6510.52 458.158
30.34 6598.69 460.45
30.36 6648 462.619
30.38 6719.37 464.95
30.4 6684.3 464.26
30.42 6537.69 458.707
30.44 6467.37 456.186
30.46 6528.69 458.475
30.48 6464.15 456.134
30.5 6287.59 449.813
30.52 6604.92 461.057
30.54 6540.05 458.929
30.56 6424.88 454.964
30.58 6389.76 453.344
30.6 6258.41 448.944
30.62 6505.05 457.735
30.64 6679.12 463.225
30.66 6435.67 455.592
30.68 6481.95 456.385
30.7 6531.85 458.959
30.72 6485.33 456.391
30.74 6368 452.831
30.76 6763.35 466.635
30.78 6525.99 458.268
30.8 6756.83 466.433
30.82 6727.01 465.681
30.84 6763.94 466.378
30.86 6899.24 471.256
30.88 6753.91 466.216
30.9 6812.44 468.848
30.92 7066.92 476.725
30.94 6893.27 470.797
30.96 6488.52 457.01
30.98 6466.16 456.497
31 6491.77 456.685
31.02 6749.38 467.39
31.04 6908.18 471.211
31.06 6311.18 449.397
31.08 6025.85 441.982
31.1 6342.19 450.5
31.12 6625.88 460.465
31.14 6623.32 463.395
31.16 5632 427.732
31.18 6511.59 456.477
31.2 6523.26 456.885
31.22 6599.11 467.39
31.24 6553.6 457.947
31.26 5461.33 418.046
31.28 0 0
31.3 0 0
31.32 0 0
31.34 0 0
31.36 0 0
31.38 0 0
31.4 0 0
31.42 0 0
31.44 0 0
31.46 0 0
31.48 0 0
31.5 0 0
