# xPDFsuite Configuration #
[PDF]
wavelength = 0.1
dataformat = Qnm
inputfile = tio2-ito-glass-250.chi
backgroundfile = ito-glass-conv.chi
mode = xray
bgscale = 1.010394815
composition = TiO2
outputtype = iq
qmaxinst = 20.0
qmin = 0.7
qmax = 16.0
rmax = 100.0
rmin = 0.0
rstep = 0.01
rpoly = 1.0

#### start data
#S 1
#L Q($\AA^{-1}$)  intensity(a.u.)
0.703091 8.57981
0.724725 8.43939
0.746358 8.13695
0.767992 7.86871
0.789625 7.64275
0.811259 7.42789
0.832892 7.25848
0.854526 7.12674
0.87616 6.99101
0.897793 6.93666
0.919427 6.91145
0.94106 6.85624
0.962694 6.80071
0.984327 6.7329
1.00596 6.68896
1.02759 6.66219
1.04923 6.62251
1.07086 6.53196
1.0925 6.44714
1.11413 6.38036
1.13576 6.39831
1.1574 6.44257
1.17903 6.49091
1.20066 6.52023
1.2223 6.39699
1.24393 6.40678
1.26556 6.42127
1.2872 6.48164
1.30883 6.55281
1.33046 6.64032
1.3521 6.81514
1.37373 6.92984
1.39537 7.05213
1.417 7.17914
1.43863 7.30966
1.46027 7.43884
1.4819 7.62328
1.50353 7.77623
1.52517 8.06259
1.5468 8.44515
1.56843 8.8506
1.59007 9.20145
1.6117 9.5178
1.63333 9.89576
1.65497 10.2547
1.6766 10.5056
1.69824 10.7107
1.71987 10.8724
1.7415 10.9666
1.76314 11.0162
1.78477 11.0524
1.8064 10.9818
1.82804 11.059
1.84967 11.3526
1.8713 11.6833
1.89294 11.8864
1.91457 11.8732
1.9362 11.7113
1.95784 11.5216
1.97947 11.4133
2.00111 11.4724
2.02274 11.6046
2.04437 11.7325
2.06601 11.832
2.08764 11.919
2.10927 12.0099
2.13091 12.0656
2.15254 11.9967
2.17417 11.7674
2.19581 11.3916
2.21744 10.9703
2.23907 10.6426
2.26071 10.4632
2.28234 10.2825
2.30398 10.0257
2.32561 9.78738
2.34724 9.53682
2.36888 9.27098
2.39051 8.95545
2.41214 8.58972
2.43378 8.30915
2.45541 8.08759
2.47704 7.88298
2.49868 7.63717
2.52031 7.30763
2.54194 6.91412
2.56358 6.53612
2.58521 6.31703
2.60685 6.16923
2.62848 6.00479
2.65011 5.84288
2.67175 5.69047
2.69338 5.5459
2.71501 5.48443
2.73665 5.466
2.75828 5.39466
2.77991 5.3625
2.80155 5.37039
2.82318 5.38513
2.84481 5.43617
2.86645 5.49748
2.88808 5.59791
2.90972 5.72695
2.93135 5.86699
2.95298 5.98667
2.97462 6.10124
2.99625 6.18741
3.01788 6.26567
3.03952 6.31818
3.06115 6.33526
3.08278 6.26127
3.10442 6.16471
3.12605 6.18487
3.14768 6.28055
3.16932 6.38473
3.19095 6.54572
3.21259 6.70048
3.23422 6.76518
3.25585 6.78259
3.27749 6.81309
3.29912 6.84861
3.32075 6.86563
3.34239 6.79756
3.36402 6.69986
3.38565 6.69091
3.40729 6.7122
3.42892 6.73254
3.45055 6.79845
3.47219 6.91575
3.49382 7.06716
3.51545 7.07181
3.53709 6.95525
3.55872 6.75704
3.58036 6.51249
3.60199 6.32855
3.62362 6.23101
3.64526 6.24115
3.66689 6.2935
3.68852 6.39969
3.71016 6.47705
3.73179 6.4366
3.75342 6.32892
3.77506 6.31796
3.79669 6.35008
3.81832 6.41936
3.83996 6.54175
3.86159 6.65312
3.88323 6.72881
3.90486 6.77108
3.92649 6.82766
3.94813 6.84448
3.96976 6.85164
3.99139 6.89939
4.01303 6.93252
4.03466 6.94269
4.05629 6.95695
4.07793 6.9504
4.09956 6.98866
4.12119 7.06312
4.14283 7.0877
4.16446 7.02445
4.1861 6.95254
4.20773 6.87946
4.22936 6.81316
4.251 6.74509
4.27263 6.67113
4.29426 6.5771
4.3159 6.49586
4.33753 6.44426
4.35916 6.38048
4.3808 6.25748
4.40243 6.17317
4.42406 6.11559
4.4457 6.03262
4.46733 5.93193
4.48897 5.83538
4.5106 5.79312
4.53223 5.75889
4.55387 5.67474
4.5755 5.5517
4.59713 5.40947
4.61877 5.27585
4.6404 5.1072
4.66203 4.91329
4.68367 4.75352
4.7053 4.62093
4.72693 4.52552
4.74857 4.4753
4.7702 4.45374
4.79184 4.40699
4.81347 4.34971
4.8351 4.31194
4.85674 4.27626
4.87837 4.23363
4.9 4.18355
4.92164 4.10319
4.94327 4.04005
4.9649 4.02848
4.98654 3.97134
5.00817 3.8451
5.0298 3.74192
5.05144 3.63823
5.07307 3.53644
5.09471 3.44786
5.11634 3.38614
5.13797 3.3394
5.15961 3.36732
5.18124 3.42756
5.20287 3.50827
5.22451 3.58093
5.24614 3.60638
5.26777 3.62884
5.28941 3.64512
5.31104 3.64638
5.33267 3.63504
5.35431 3.6391
5.37594 3.64359
5.39758 3.63133
5.41921 3.58213
5.44084 3.56203
5.46248 3.53425
5.48411 3.49665
5.50574 3.48893
5.52738 3.47551
5.54901 3.45615
5.57064 3.44235
5.59228 3.44008
5.61391 3.42025
5.63554 3.37316
5.65718 3.31589
5.67881 3.2788
5.70045 3.25056
5.72208 3.21706
5.74371 3.21353
5.76535 3.19823
5.78698 3.16814
5.80861 3.12071
5.83025 3.10596
5.85188 3.11447
5.87351 3.11629
5.89515 3.07429
5.91678 3.0394
5.93841 3.02846
5.96005 2.9785
5.98168 2.92305
6.00332 2.88093
6.02495 2.87732
6.04658 2.8859
6.06822 2.90841
6.08985 2.93074
6.11148 2.94949
6.13312 2.96471
6.15475 2.96707
6.17638 2.95957
6.19802 2.94291
6.21965 2.93048
6.24128 2.91026
6.26292 2.87208
6.28455 2.84208
6.30619 2.8533
6.32782 2.88475
6.34945 2.88942
6.37109 2.88694
6.39272 2.89589
6.41435 2.90017
6.43599 2.90072
6.45762 2.91672
6.47925 2.91773
6.50089 2.89225
6.52252 2.8921
6.54415 2.91451
6.56579 2.90243
6.58742 2.90751
6.60906 2.91277
6.63069 2.91427
6.65232 2.92159
6.67396 2.91436
6.69559 2.91207
6.71722 2.91765
6.73886 2.9169
6.76049 2.90076
6.78212 2.89289
6.80376 2.9163
6.82539 2.9172
6.84702 2.9132
6.86866 2.89041
6.89029 2.88493
6.91193 2.89215
6.93356 2.89112
6.95519 2.88177
6.97683 2.89929
6.99846 2.92874
7.02009 2.91063
7.04173 2.89809
7.06336 2.901
7.08499 2.88504
7.10663 2.86758
7.12826 2.8879
7.14989 2.87145
7.17153 2.85236
7.19316 2.84841
7.2148 2.82513
7.23643 2.79898
7.25806 2.76771
7.2797 2.71239
7.30133 2.68227
7.32296 2.66412
7.3446 2.64759
7.36623 2.63698
7.38786 2.59071
7.4095 2.5479
7.43113 2.52973
7.45276 2.53184
7.4744 2.50823
7.49603 2.45404
7.51767 2.41713
7.5393 2.39948
7.56093 2.36453
7.58257 2.33658
7.6042 2.3079
7.62583 2.2686
7.64747 2.22428
7.6691 2.16645
7.69073 2.13555
7.71237 2.12261
7.734 2.10565
7.75563 2.07801
7.77727 2.0715
7.7989 2.06845
7.82054 2.07415
7.84217 2.05757
7.8638 2.04079
7.88544 2.01763
7.90707 1.97636
7.9287 1.98283
7.95034 2.01144
7.97197 2.04149
7.9936 2.04207
8.01524 2.02666
8.03687 2.01713
8.0585 2.0243
8.08014 2.0348
8.10177 2.05204
8.12341 2.05462
8.14504 2.05204
8.16667 2.0496
8.18831 2.05096
8.20994 2.05425
8.23157 2.06818
8.25321 2.05579
8.27484 2.05418
8.29647 2.06462
8.31811 2.06277
8.33974 2.07047
8.36137 2.07132
8.38301 2.04401
8.40464 2.02263
8.42628 2.01353
8.44791 1.9996
8.46954 2.012
8.49118 2.0109
8.51281 1.99918
8.53444 1.98591
8.55608 1.97878
8.57771 1.98612
8.59934 2.01047
8.62098 2.01311
8.64261 2.00238
8.66424 1.9863
8.68588 1.98446
8.70751 1.96388
8.72915 1.9596
8.75078 1.95895
8.77241 1.96182
8.79405 1.95615
8.81568 1.93679
8.83731 1.93861
8.85895 1.95908
8.88058 1.9555
8.90221 1.94211
8.92385 1.94852
8.94548 1.94974
8.96711 1.9509
8.98875 1.97241
9.01038 1.96514
9.03202 1.97264
9.05365 1.97249
9.07528 1.97405
9.09692 1.96626
9.11855 1.9505
9.14018 1.96567
9.16182 1.97829
9.18345 1.97242
9.20508 1.95842
9.22672 1.9525
9.24835 1.97933
9.26998 1.9972
9.29162 1.96866
9.31325 1.97142
9.33489 1.98934
9.35652 1.9601
9.37815 1.95173
9.39979 1.95657
9.42142 1.95758
9.44305 1.95735
9.46469 1.96796
9.48632 1.96507
9.50795 1.96649
9.52959 1.97931
9.55122 1.97547
9.57285 1.97349
9.59449 1.98725
9.61612 1.97757
9.63776 1.97193
9.65939 1.95663
9.68102 1.93885
9.70266 1.94661
9.72429 1.95763
9.74592 1.94329
9.76756 1.93001
9.78919 1.92923
9.81082 1.93396
9.83246 1.94224
9.85409 1.92313
9.87572 1.91952
9.89736 1.92046
9.91899 1.9052
9.94062 1.9029
9.96226 1.90661
9.98389 1.88818
10.0055 1.87747
10.0272 1.8827
10.0488 1.8796
10.0704 1.87963
10.0921 1.90101
10.1137 1.90446
10.1353 1.87629
10.157 1.88058
10.1786 1.88039
10.2002 1.87147
10.2219 1.8627
10.2435 1.85941
10.2651 1.8615
10.2868 1.85354
10.3084 1.86927
10.33 1.87561
10.3517 1.84563
10.3733 1.83648
10.3949 1.857
10.4166 1.8695
10.4382 1.85796
10.4598 1.86237
10.4815 1.86959
10.5031 1.86373
10.5247 1.86348
10.5464 1.8476
10.568 1.82518
10.5896 1.82313
10.6113 1.82732
10.6329 1.82648
10.6545 1.82544
10.6762 1.82988
10.6978 1.83762
10.7194 1.82303
10.7411 1.80092
10.7627 1.80786
10.7843 1.82058
10.806 1.80506
10.8276 1.81736
10.8492 1.80226
10.8709 1.79497
10.8925 1.80174
10.9141 1.80712
10.9358 1.80225
10.9574 1.80052
10.979 1.79618
11.0007 1.79659
11.0223 1.78678
11.0439 1.78881
11.0656 1.76526
11.0872 1.77059
11.1088 1.78843
11.1305 1.78571
11.1521 1.76598
11.1737 1.76458
11.1954 1.76035
11.217 1.76703
11.2386 1.75665
11.2603 1.74604
11.2819 1.73504
11.3035 1.69422
11.3252 1.67591
11.3468 1.66851
11.3684 1.68602
11.3901 1.69124
11.4117 1.67852
11.4333 1.66356
11.455 1.66153
11.4766 1.65944
11.4982 1.66068
11.5199 1.65798
11.5415 1.64621
11.5631 1.6278
11.5848 1.62082
11.6064 1.62578
11.628 1.62444
11.6497 1.60912
11.6713 1.61932
11.6929 1.61889
11.7146 1.61548
11.7362 1.6047
11.7578 1.62906
11.7795 1.62021
11.8011 1.59924
11.8227 1.58743
11.8444 1.57972
11.866 1.55557
11.8876 1.54035
11.9093 1.54377
11.9309 1.55105
11.9525 1.55322
11.9742 1.54148
11.9958 1.54345
12.0174 1.53619
12.0391 1.54059
12.0607 1.54519
12.0823 1.54974
12.104 1.55718
12.1256 1.54955
12.1472 1.54702
12.1689 1.5556
12.1905 1.55653
12.2121 1.56758
12.2338 1.56706
12.2554 1.56937
12.2771 1.56436
12.2987 1.5546
12.3203 1.57103
12.342 1.5919
12.3636 1.59069
12.3852 1.59214
12.4069 1.59239
12.4285 1.58522
12.4501 1.58256
12.4718 1.59616
12.4934 1.60014
12.515 1.5849
12.5367 1.59991
12.5583 1.61487
12.5799 1.61823
12.6016 1.60025
12.6232 1.58916
12.6448 1.61023
12.6665 1.62443
12.6881 1.62103
12.7097 1.62184
12.7314 1.62279
12.753 1.61166
12.7746 1.60988
12.7963 1.62342
12.8179 1.63364
12.8395 1.64178
12.8612 1.63721
12.8828 1.6211
12.9044 1.62514
12.9261 1.62528
12.9477 1.62666
12.9693 1.6311
12.991 1.64011
13.0126 1.63395
13.0342 1.61833
13.0559 1.62697
13.0775 1.61503
13.0991 1.60039
13.1208 1.60301
13.1424 1.5856
13.164 1.56451
13.1857 1.56948
13.2073 1.56691
13.2289 1.56697
13.2506 1.56847
13.2722 1.56862
13.2938 1.55283
13.3155 1.54102
13.3371 1.5505
13.3587 1.53964
13.3804 1.54616
13.402 1.55365
13.4236 1.54095
13.4453 1.5306
13.4669 1.52254
13.4885 1.52122
13.5102 1.53096
13.5318 1.52678
13.5534 1.51583
13.5751 1.50429
13.5967 1.50081
13.6183 1.49223
13.64 1.4779
13.6616 1.48524
13.6832 1.49475
13.7049 1.48365
13.7265 1.50124
13.7481 1.49339
13.7698 1.48026
13.7914 1.47499
13.813 1.47181
13.8347 1.48283
13.8563 1.47736
13.8779 1.46316
13.8996 1.4612
13.9212 1.4572
13.9428 1.45856
13.9645 1.45308
13.9861 1.44842
14.0077 1.44282
14.0294 1.42808
14.051 1.42408
14.0726 1.4401
14.0943 1.43143
14.1159 1.42649
14.1375 1.42241
14.1592 1.42987
14.1808 1.4299
14.2024 1.42711
14.2241 1.40677
14.2457 1.40411
14.2673 1.40931
14.289 1.41153
14.3106 1.39928
14.3322 1.39717
14.3539 1.39193
14.3755 1.39817
14.3971 1.40402
14.4188 1.38156
14.4404 1.37301
14.462 1.37224
14.4837 1.35735
14.5053 1.35663
14.5269 1.35721
14.5486 1.37262
14.5702 1.36485
14.5918 1.36604
14.6135 1.36733
14.6351 1.36463
14.6567 1.3689
14.6784 1.35105
14.7 1.33815
14.7216 1.33437
14.7433 1.33903
14.7649 1.34814
14.7865 1.35119
14.8082 1.34872
14.8298 1.34997
14.8514 1.34627
14.8731 1.33544
14.8947 1.33603
14.9163 1.33897
14.938 1.34607
14.9596 1.33293
14.9812 1.33661
15.0029 1.32568
15.0245 1.32619
15.0461 1.31038
15.0678 1.31111
15.0894 1.31251
15.111 1.31229
15.1327 1.31513
15.1543 1.31556
15.1759 1.29684
15.1976 1.30074
15.2192 1.30183
15.2408 1.29501
15.2625 1.27466
15.2841 1.26691
15.3058 1.2757
15.3274 1.26907
15.349 1.27946
15.3707 1.28344
15.3923 1.27787
15.4139 1.2542
15.4356 1.2468
15.4572 1.26057
15.4788 1.25209
15.5005 1.25505
15.5221 1.25426
15.5437 1.24737
15.5654 1.25662
15.587 1.2535
15.6086 1.23727
15.6303 1.23128
15.6519 1.229
15.6735 1.23161
15.6952 1.23143
15.7168 1.23495
15.7384 1.23671
15.7601 1.23005
15.7817 1.22788
15.8033 1.22498
15.825 1.2024
15.8466 1.20954
15.8682 1.21848
15.8899 1.21334
15.9115 1.20979
15.9331 1.21426
15.9548 1.20977
15.9764 1.21575
15.998 1.20686
16.0197 1.21223
16.0413 1.21292
16.0629 1.19011
16.0846 1.1912
16.1062 1.18096
16.1278 1.1905
16.1495 1.17336
16.1711 1.18467
16.1927 1.18344
16.2144 1.18172
16.236 1.18992
16.2576 1.18579
16.2793 1.18499
16.3009 1.18447
16.3225 1.1738
16.3442 1.17479
16.3658 1.17861
16.3874 1.17348
16.4091 1.16626
16.4307 1.16864
16.4523 1.17016
16.474 1.17136
16.4956 1.17376
16.5172 1.16809
16.5389 1.16599
16.5605 1.1641
16.5821 1.14626
16.6038 1.1384
16.6254 1.13726
16.647 1.12337
16.6687 1.14057
16.6903 1.13411
16.7119 1.13837
16.7336 1.13553
16.7552 1.14353
16.7768 1.14036
16.7985 1.13076
16.8201 1.12262
16.8417 1.11484
16.8634 1.12154
16.885 1.11692
16.9066 1.12794
16.9283 1.12813
16.9499 1.1269
16.9715 1.11561
16.9932 1.10897
17.0148 1.12791
17.0364 1.12862
17.0581 1.11817
17.0797 1.10226
17.1013 1.11255
17.123 1.1209
17.1446 1.10708
17.1662 1.10178
17.1879 1.10128
17.2095 1.10776
17.2311 1.10418
17.2528 1.09188
17.2744 1.08766
17.296 1.07146
17.3177 1.08465
17.3393 1.11754
17.3609 1.08782
17.3826 1.0823
17.4042 1.08385
17.4258 1.08393
17.4475 1.08007
17.4691 1.08041
17.4907 1.07144
17.5124 1.07775
17.534 1.07182
17.5556 1.06498
17.5773 1.07706
17.5989 1.07816
17.6205 1.07119
17.6422 1.07839
17.6638 1.0772
17.6854 1.06904
17.7071 1.05421
17.7287 1.05669
17.7503 1.05039
17.772 1.04137
17.7936 1.04866
17.8152 1.04912
17.8369 1.05632
17.8585 1.039
17.8801 1.03401
17.9018 1.03585
17.9234 1.02561
17.945 1.03665
17.9667 1.03809
17.9883 1.04163
18.0099 1.03903
18.0316 1.02525
18.0532 1.01974
18.0748 1.02064
18.0965 1.02715
18.1181 1.02788
18.1397 1.01919
18.1614 1.0204
18.183 1.00604
18.2046 1.02444
18.2263 1.02078
18.2479 1.01097
18.2695 1.01738
18.2912 1.02186
18.3128 1.00767
18.3344 1.00639
18.3561 1.01413
18.3777 1.01504
18.3994 1.01309
18.421 0.999464
18.4426 0.992654
18.4643 0.986623
18.4859 1.00373
18.5075 1.0122
18.5292 1.03114
18.5508 1.01876
18.5724 1.01029
18.5941 1.00157
18.6157 0.995784
18.6373 1.00083
18.659 1.00183
18.6806 0.986532
18.7022 0.992045
18.7239 0.988576
18.7455 0.984021
18.7671 0.982767
18.7888 0.989854
18.8104 0.979594
18.832 0.983856
18.8537 0.984958
18.8753 0.97823
18.8969 0.978151
18.9186 0.978872
18.9402 0.979346
18.9618 0.993383
18.9835 0.988662
19.0051 0.967372
19.0267 0.959687
19.0484 0.974301
19.07 0.97421
19.0916 0.98508
19.1133 0.986036
19.1349 0.970406
19.1565 0.969518
19.1782 0.976897
19.1998 0.975689
19.2214 0.968279
19.2431 0.958135
19.2647 0.961909
19.2863 0.964396
19.308 0.955336
19.3296 0.942764
19.3512 0.944236
19.3729 0.952602
19.3945 0.94637
19.4161 0.959408
19.4378 0.961376
19.4594 0.947194
19.481 0.946084
19.5027 0.959185
19.5243 0.95438
19.5459 0.95069
19.5676 0.955202
19.5892 0.951667
19.6108 0.950018
19.6325 0.954523
19.6541 0.963309
19.6757 0.953046
19.6974 0.959778
19.719 0.950911
19.7406 0.956068
19.7623 0.941237
19.7839 0.968109
19.8055 0.966776
19.8272 0.959762
19.8488 0.949066
19.8704 0.958261
19.8921 0.950513
19.9137 0.947187
19.9353 0.954406
19.957 0.946973
19.9786 0.945145
