# xPDFsuite Configuration #
[PDF]
wavelength = 0.1
dataformat = Qnm
inputfile = tio2-ito-glass-450.chi
backgroundfile = ito-glass-conv.chi
mode = xray
bgscale = 1.01039749375
composition = TiO2
outputtype = iq
qmaxinst = 20.0
qmin = 0.7
qmax = 16.0
rmax = 100.0
rmin = 0.0
rstep = 0.01
rpoly = 1.0

#### start data
#S 1
#L Q($\AA^{-1}$)  intensity(a.u.)
0.703091 -2.68711
0.724725 -2.96473
0.746358 -3.17869
0.767992 -3.46758
0.789625 -3.88063
0.811259 -4.0664
0.832892 -4.32344
0.854526 -4.47088
0.87616 -4.61629
0.897793 -4.81316
0.919427 -4.93525
0.94106 -5.01055
0.962694 -5.15778
0.984327 -5.19272
1.00596 -5.15434
1.02759 -5.23761
1.04923 -5.16006
1.07086 -5.23902
1.0925 -5.37136
1.11413 -5.38632
1.13576 -5.5114
1.1574 -5.53627
1.17903 -5.46587
1.20066 -5.51748
1.2223 -5.56436
1.24393 -5.60836
1.26556 -5.71194
1.2872 -5.70301
1.30883 -5.69115
1.33046 -5.74273
1.3521 -5.74782
1.37373 -5.74164
1.39537 -5.73812
1.417 -5.69478
1.43863 -5.73075
1.46027 -5.64965
1.4819 -5.55106
1.50353 -5.42838
1.52517 -5.18124
1.5468 -4.90327
1.56843 -4.62749
1.59007 -4.27141
1.6117 -3.805
1.63333 -3.28057
1.65497 -2.40238
1.6766 -0.935663
1.69824 1.92308
1.71987 7.28095
1.7415 15.6935
1.76314 24.5017
1.78477 28.4289
1.8064 24.889
1.82804 16.7038
1.84967 8.68085
1.8713 3.67184
1.89294 1.20546
1.91457 0.0444914
1.9362 -0.554707
1.95784 -0.907692
1.97947 -1.15665
2.00111 -1.14618
2.02274 -0.995357
2.04437 -0.845265
2.06601 -0.626444
2.08764 -0.466444
2.10927 -0.249035
2.13091 -0.0177567
2.15254 0.115997
2.17417 0.0093773
2.19581 -0.287725
2.21744 -0.517252
2.23907 -0.581519
2.26071 -0.568784
2.28234 -0.606216
2.30398 -0.593487
2.32561 -0.571798
2.34724 -0.530577
2.36888 -0.478755
2.39051 -0.50085
2.41214 -0.475426
2.43378 -0.428508
2.45541 -0.248335
2.47704 0.0302875
2.49868 0.338167
2.52031 0.731689
2.54194 1.35938
2.56358 2.38676
2.58521 3.86886
2.60685 5.58425
2.62848 6.93339
2.65011 7.25664
2.67175 6.35014
2.69338 4.64773
2.71501 2.86641
2.73665 1.49443
2.75828 0.560447
2.77991 0.0224182
2.80155 -0.28682
2.82318 -0.471907
2.84481 -0.53742
2.86645 -0.582556
2.88808 -0.59827
2.90972 -0.539792
2.93135 -0.535526
2.95298 -0.534315
2.97462 -0.530456
2.99625 -0.512861
3.01788 -0.482385
3.03952 -0.491271
3.06115 -0.522892
3.08278 -0.550901
3.10442 -0.600096
3.12605 -0.595056
3.14768 -0.441698
3.16932 -0.195032
3.19095 0.175486
3.21259 0.762678
3.23422 1.81792
3.25585 3.75875
3.27749 6.40732
3.29912 8.77174
3.32075 9.37313
3.34239 7.75504
3.36402 5.05435
3.38565 2.71758
3.40729 1.31328
3.42892 0.612319
3.45055 0.350079
3.47219 0.312103
3.49382 0.424573
3.51545 0.502955
3.53709 0.454473
3.55872 0.330673
3.58036 0.354674
3.60199 0.731015
3.62362 1.64323
3.64526 3.24276
3.66689 5.34383
3.68852 7.37444
3.71016 8.6158
3.73179 9.04565
3.75342 8.67317
3.77506 7.38731
3.79669 5.39034
3.81832 3.3396
3.83996 1.83796
3.86159 0.952338
3.88323 0.485214
3.90486 0.193156
3.92649 0.0168608
3.94813 -0.10818
3.96976 -0.16566
3.99139 -0.185229
4.01303 -0.191441
4.03466 -0.162229
4.05629 -0.116143
4.07793 -0.0265118
4.09956 0.187985
4.12119 0.564276
4.14283 1.09044
4.16446 1.94394
4.1861 3.24619
4.20773 4.69769
4.22936 5.63953
4.251 5.49308
4.27263 4.38178
4.29426 2.91424
4.3159 1.74332
4.33753 1.0113
4.35916 0.597123
4.3808 0.365078
4.40243 0.237718
4.42406 0.191616
4.4457 0.158543
4.46733 0.182859
4.48897 0.268903
4.5106 0.489441
4.53223 0.870431
4.55387 1.43369
4.5755 2.0634
4.59713 2.59
4.61877 2.89828
4.6404 3.02584
4.66203 3.07582
4.68367 2.94873
4.7053 2.48255
4.72693 1.76778
4.74857 1.09331
4.7702 0.631904
4.79184 0.409493
4.81347 0.35884
4.8351 0.40839
4.85674 0.599127
4.87837 0.978692
4.9 1.63643
4.92164 2.56813
4.94327 3.57437
4.9649 4.17808
4.98654 4.03596
5.00817 3.31881
5.0298 2.36318
5.05144 1.47379
5.07307 0.797062
5.09471 0.322303
5.11634 0.0789286
5.13797 -0.0277771
5.15961 -0.048157
5.18124 -0.0185818
5.20287 0.0417987
5.22451 0.137014
5.24614 0.267407
5.26777 0.429053
5.28941 0.663763
5.31104 1.05306
5.33267 1.64249
5.35431 2.34052
5.37594 2.83586
5.39758 2.84219
5.41921 2.35
5.44084 1.6579
5.46248 1.03532
5.48411 0.622316
5.50574 0.427577
5.52738 0.336509
5.54901 0.287452
5.57064 0.242114
5.59228 0.199613
5.61391 0.145749
5.63554 0.111519
5.65718 0.09591
5.67881 0.0861951
5.70045 0.089336
5.72208 0.0943898
5.74371 0.111038
5.76535 0.128613
5.78698 0.134971
5.80861 0.150487
5.83025 0.164762
5.85188 0.211842
5.87351 0.348704
5.89515 0.564447
5.91678 0.84313
5.93841 1.17518
5.96005 1.49031
5.98168 1.70304
6.00332 1.70083
6.02495 1.4805
6.04658 1.15163
6.06822 0.840514
6.08985 0.643236
6.11148 0.590513
6.13312 0.656716
6.15475 0.755454
6.17638 0.826032
6.19802 0.870431
6.21965 0.879015
6.24128 0.837068
6.26292 0.775239
6.28455 0.692026
6.30619 0.582441
6.32782 0.461835
6.34945 0.338521
6.37109 0.26553
6.39272 0.206119
6.41435 0.212428
6.43599 0.248985
6.45762 0.313122
6.47925 0.413902
6.50089 0.563479
6.52252 0.799724
6.54415 1.07192
6.56579 1.32034
6.58742 1.42553
6.60906 1.38369
6.63069 1.24304
6.65232 1.02397
6.67396 0.794601
6.69559 0.639841
6.71722 0.5688
6.73886 0.590001
6.76049 0.741954
6.78212 1.0113
6.80376 1.34244
6.82539 1.6242
6.84702 1.73534
6.86866 1.61787
6.89029 1.36913
6.91193 1.17292
6.93356 1.12417
6.95519 1.26913
6.97683 1.56028
6.99846 1.82023
7.02009 1.89184
7.04173 1.8022
7.06336 1.65761
7.08499 1.56919
7.10663 1.54435
7.12826 1.51556
7.14989 1.39816
7.17153 1.15596
7.19316 0.867563
7.2148 0.622803
7.23643 0.468043
7.25806 0.402095
7.2797 0.359512
7.30133 0.350732
7.32296 0.40967
7.3446 0.51293
7.36623 0.661957
7.38786 0.826122
7.4095 0.928948
7.43113 0.915463
7.45276 0.801069
7.4744 0.659
7.49603 0.575848
7.51767 0.566743
7.5393 0.644675
7.56093 0.764504
7.58257 0.840307
7.6042 0.797201
7.62583 0.66272
7.64747 0.499903
7.6691 0.37339
7.69073 0.32781
7.71237 0.332103
7.734 0.361252
7.75563 0.397846
7.77727 0.434273
7.7989 0.496568
7.82054 0.613405
7.84217 0.752097
7.8638 0.839952
7.88544 0.793543
7.90707 0.622482
7.9287 0.464744
7.95034 0.339104
7.97197 0.27485
7.9936 0.26554
8.01524 0.270228
8.03687 0.301252
8.0585 0.359433
8.08014 0.389961
8.10177 0.400122
8.12341 0.398583
8.14504 0.389276
8.16667 0.385539
8.18831 0.386228
8.20994 0.388973
8.23157 0.430048
8.25321 0.483979
8.27484 0.55174
8.29647 0.631955
8.31811 0.713308
8.33974 0.769286
8.36137 0.826866
8.38301 0.941256
8.40464 1.09968
8.42628 1.23856
8.44791 1.2677
8.46954 1.17271
8.49118 1.01864
8.51281 0.874133
8.53444 0.750467
8.55608 0.659444
8.57771 0.589882
8.59934 0.501172
8.62098 0.41336
8.64261 0.358147
8.66424 0.326562
8.68588 0.31662
8.70751 0.318977
8.72915 0.327904
8.75078 0.335998
8.77241 0.343833
8.79405 0.348472
8.81568 0.353246
8.83731 0.39918
8.85895 0.482285
8.88058 0.59854
8.90221 0.721323
8.92385 0.8019
8.94548 0.801032
8.96711 0.725796
8.98875 0.644716
9.01038 0.592249
9.03202 0.596133
9.05365 0.638989
9.07528 0.662811
9.09692 0.641901
9.11855 0.588323
9.14018 0.533199
9.16182 0.482696
9.18345 0.432756
9.20508 0.415747
9.22672 0.408451
9.24835 0.435676
9.26998 0.492387
9.29162 0.56606
9.31325 0.660993
9.33489 0.748944
9.35652 0.765625
9.37815 0.746817
9.39979 0.714929
9.42142 0.673359
9.44305 0.650236
9.46469 0.669858
9.48632 0.731338
9.50795 0.789707
9.52959 0.806308
9.55122 0.775271
9.57285 0.709735
9.59449 0.673356
9.61612 0.655308
9.63776 0.645962
9.65939 0.638611
9.68102 0.626338
9.70266 0.624768
9.72429 0.633572
9.74592 0.6182
9.76756 0.575623
9.78919 0.531454
9.81082 0.476965
9.83246 0.446117
9.85409 0.440642
9.87572 0.452912
9.89736 0.476768
9.91899 0.497657
9.94062 0.533959
9.96226 0.566453
9.98389 0.566172
10.0055 0.560861
10.0272 0.570954
10.0488 0.591645
10.0704 0.613354
10.0921 0.634577
10.1137 0.626615
10.1353 0.612682
10.157 0.609152
10.1786 0.6238
10.2002 0.645705
10.2219 0.640823
10.2435 0.628573
10.2651 0.622321
10.2868 0.616808
10.3084 0.606262
10.33 0.587897
10.3517 0.564894
10.3733 0.567733
10.3949 0.594445
10.4166 0.63327
10.4382 0.692535
10.4598 0.743066
10.4815 0.765597
10.5031 0.750582
10.5247 0.754988
10.5464 0.793449
10.568 0.845148
10.5896 0.913582
10.6113 0.967049
10.6329 0.986352
10.6545 0.957548
10.6762 0.939616
10.6978 0.943724
10.7194 0.958536
10.7411 0.937808
10.7627 0.902798
10.7843 0.858377
10.806 0.815747
10.8276 0.770319
10.8492 0.692861
10.8709 0.618954
10.8925 0.566627
10.9141 0.54386
10.9358 0.546659
10.9574 0.557117
10.979 0.552719
11.0007 0.569711
11.0223 0.596912
11.0439 0.613434
11.0656 0.62768
11.0872 0.64881
11.1088 0.662257
11.1305 0.661501
11.1521 0.622718
11.1737 0.572245
11.1954 0.536503
11.217 0.52149
11.2386 0.500905
11.2603 0.487146
11.2819 0.480402
11.3035 0.456949
11.3252 0.458378
11.3468 0.449804
11.3684 0.443471
11.3901 0.436439
11.4117 0.438304
11.4333 0.446795
11.455 0.470946
11.4766 0.49193
11.4982 0.526797
11.5199 0.572912
11.5415 0.614226
11.5631 0.650202
11.5848 0.678124
11.6064 0.695919
11.628 0.696662
11.6497 0.692795
11.6713 0.688646
11.6929 0.702082
11.7146 0.715019
11.7362 0.691675
11.7578 0.661704
11.7795 0.612461
11.8011 0.573153
11.8227 0.540577
11.8444 0.512083
11.866 0.494071
11.8876 0.499155
11.9093 0.510465
11.9309 0.53039
11.9525 0.541828
11.9742 0.543935
11.9958 0.54833
12.0174 0.555848
12.0391 0.561462
12.0607 0.56877
12.0823 0.571544
12.104 0.57377
12.1256 0.562276
12.1472 0.563001
12.1689 0.568127
12.1905 0.572956
12.2121 0.578776
12.2338 0.585417
12.2554 0.576591
12.2771 0.55499
12.2987 0.543285
12.3203 0.554669
12.342 0.57545
12.3636 0.583903
12.3852 0.586984
12.4069 0.595227
12.4285 0.598177
12.4501 0.600374
12.4718 0.62094
12.4934 0.637518
12.515 0.63355
12.5367 0.641748
12.5583 0.635481
12.5799 0.618603
12.6016 0.598006
12.6232 0.577509
12.6448 0.573222
12.6665 0.572063
12.6881 0.566969
12.7097 0.561313
12.7314 0.549551
12.753 0.550473
12.7746 0.541474
12.7963 0.544389
12.8179 0.56229
12.8395 0.580634
12.8612 0.589563
12.8828 0.602002
12.9044 0.622915
12.9261 0.634461
12.9477 0.63761
12.9693 0.642805
12.991 0.640816
13.0126 0.639532
13.0342 0.64085
13.0559 0.652638
13.0775 0.648012
13.0991 0.626387
13.1208 0.606593
13.1424 0.595848
13.164 0.588415
13.1857 0.595888
13.2073 0.600772
13.2289 0.606663
13.2506 0.623491
13.2722 0.638459
13.2938 0.645603
13.3155 0.660248
13.3371 0.68956
13.3587 0.7077
13.3804 0.724244
13.402 0.728051
13.4236 0.724665
13.4453 0.713853
13.4669 0.708174
13.4885 0.691297
13.5102 0.66843
13.5318 0.637352
13.5534 0.615328
13.5751 0.5981
13.5967 0.58451
13.6183 0.574878
13.64 0.575259
13.6616 0.586433
13.6832 0.587777
13.7049 0.590319
13.7265 0.598005
13.7481 0.587415
13.7698 0.580831
13.7914 0.572066
13.813 0.56227
13.8347 0.553689
13.8563 0.552568
13.8779 0.551575
13.8996 0.552917
13.9212 0.550985
13.9428 0.551126
13.9645 0.548269
13.9861 0.544232
14.0077 0.533852
14.0294 0.527422
14.051 0.526482
14.0726 0.533618
14.0943 0.549782
14.1159 0.55268
14.1375 0.553039
14.1592 0.547405
14.1808 0.549965
14.2024 0.560267
14.2241 0.575876
14.2457 0.581368
14.2673 0.566882
14.289 0.56137
14.3106 0.565428
14.3322 0.559034
14.3539 0.537179
14.3755 0.511348
14.3971 0.500608
14.4188 0.489705
14.4404 0.484402
14.462 0.494804
14.4837 0.504789
14.5053 0.510638
14.5269 0.515763
14.5486 0.517439
14.5702 0.514966
14.5918 0.52824
14.6135 0.527023
14.6351 0.51937
14.6567 0.517575
14.6784 0.513751
14.7 0.505243
14.7216 0.507413
14.7433 0.501091
14.7649 0.506738
14.7865 0.523413
14.8082 0.541142
14.8298 0.545646
14.8514 0.538971
14.8731 0.537483
14.8947 0.543133
14.9163 0.553309
14.938 0.554078
14.9596 0.554325
14.9812 0.54694
15.0029 0.526207
15.0245 0.525157
15.0461 0.526987
15.0678 0.517623
15.0894 0.508264
15.111 0.507689
15.1327 0.498981
15.1543 0.506721
15.1759 0.493475
15.1976 0.497004
15.2192 0.505764
15.2408 0.499988
15.2625 0.495493
15.2841 0.495829
15.3058 0.502097
15.3274 0.506618
15.349 0.506676
15.3707 0.506798
15.3923 0.497582
15.4139 0.486214
15.4356 0.480982
15.4572 0.477696
15.4788 0.477156
15.5005 0.47937
15.5221 0.491209
15.5437 0.485831
15.5654 0.488282
15.587 0.499893
15.6086 0.504907
15.6303 0.505601
15.6519 0.503313
15.6735 0.506748
15.6952 0.508797
15.7168 0.494713
15.7384 0.47669
15.7601 0.476172
15.7817 0.477176
15.8033 0.468932
15.825 0.453602
15.8466 0.452653
15.8682 0.447387
15.8899 0.447436
15.9115 0.441597
15.9331 0.442131
15.9548 0.44668
15.9764 0.445094
15.998 0.441041
16.0197 0.443578
16.0413 0.44938
16.0629 0.448558
16.0846 0.44732
16.1062 0.440121
16.1278 0.447732
16.1495 0.446974
16.1711 0.449415
16.1927 0.457552
16.2144 0.450531
16.236 0.441349
16.2576 0.444221
16.2793 0.45083
16.3009 0.46275
16.3225 0.467724
16.3442 0.467832
16.3658 0.469698
16.3874 0.471353
16.4091 0.466412
16.4307 0.464989
16.4523 0.463027
16.474 0.455876
16.4956 0.460104
16.5172 0.462874
16.5389 0.459748
16.5605 0.464828
16.5821 0.46722
16.6038 0.457689
16.6254 0.455882
16.647 0.457225
16.6687 0.458868
16.6903 0.460695
16.7119 0.466502
16.7336 0.461102
16.7552 0.457791
16.7768 0.454103
16.7985 0.454224
16.8201 0.44886
16.8417 0.443115
16.8634 0.448387
16.885 0.443494
16.9066 0.452165
16.9283 0.453062
16.9499 0.44222
16.9715 0.439242
16.9932 0.433419
17.0148 0.443658
17.0364 0.437486
17.0581 0.433207
17.0797 0.420103
17.1013 0.42439
17.123 0.429545
17.1446 0.421656
17.1662 0.412569
17.1879 0.413189
17.2095 0.418429
17.2311 0.425455
17.2528 0.420154
17.2744 0.4227
17.296 0.419145
17.3177 0.428013
17.3393 0.453215
17.3609 0.430804
17.3826 0.423931
17.4042 0.429197
17.4258 0.420536
17.4475 0.422139
17.4691 0.416541
17.4907 0.421648
17.5124 0.423039
17.534 0.416985
17.5556 0.418241
17.5773 0.414508
17.5989 0.415837
17.6205 0.420614
17.6422 0.429349
17.6638 0.410009
17.6854 0.3967
17.7071 0.394284
17.7287 0.397676
17.7503 0.395693
17.772 0.404506
17.7936 0.404171
17.8152 0.400553
17.8369 0.405607
17.8585 0.399713
17.8801 0.39133
17.9018 0.392909
17.9234 0.383713
17.945 0.385644
17.9667 0.383539
17.9883 0.391739
18.0099 0.392963
18.0316 0.389402
18.0532 0.388679
18.0748 0.385953
18.0965 0.378601
18.1181 0.380802
18.1397 0.380097
18.1614 0.37726
18.183 0.379679
18.2046 0.398805
18.2263 0.393278
18.2479 0.389219
18.2695 0.39003
18.2912 0.394853
18.3128 0.387762
18.3344 0.3978
18.3561 0.386673
18.3777 0.385522
18.3994 0.386772
18.421 0.378048
18.4426 0.379585
18.4643 0.38679
18.4859 0.390627
18.5075 0.378765
18.5292 0.390745
18.5508 0.388164
18.5724 0.39175
18.5941 0.381978
18.6157 0.380062
18.6373 0.374912
18.659 0.377915
18.6806 0.381682
18.7022 0.381297
18.7239 0.379301
18.7455 0.373885
18.7671 0.372577
18.7888 0.377193
18.8104 0.380474
18.832 0.376688
18.8537 0.367942
18.8753 0.374328
18.8969 0.379995
18.9186 0.377527
18.9402 0.383683
18.9618 0.378396
18.9835 0.371899
19.0051 0.367011
19.0267 0.368604
19.0484 0.379419
19.07 0.370111
19.0916 0.373849
19.1133 0.38306
19.1349 0.365088
19.1565 0.370105
19.1782 0.371868
19.1998 0.366153
19.2214 0.360199
19.2431 0.364521
19.2647 0.364419
19.2863 0.372461
19.308 0.37322
19.3296 0.369376
19.3512 0.356719
19.3729 0.361816
19.3945 0.358254
19.4161 0.3656
19.4378 0.371567
19.4594 0.369776
19.481 0.364824
19.5027 0.369346
19.5243 0.370714
19.5459 0.363713
19.5676 0.357765
19.5892 0.358067
19.6108 0.360356
19.6325 0.360107
19.6541 0.362059
19.6757 0.364872
19.6974 0.371453
19.719 0.363984
19.7406 0.364557
19.7623 0.357565
19.7839 0.370323
19.8055 0.369594
19.8272 0.364964
19.8488 0.361173
19.8704 0.363897
19.8921 0.364448
19.9137 0.361941
19.9353 0.359265
19.957 0.367774
19.9786 0.372012
